Age (Ma) (automatic) (3),d13Cvpdb
18.953,1.098
19.085,0.988
19.152,1.140
19.218,1.101
19.285,1.028
19.351,0.917
19.362,1.120
19.424,0.930
19.487,1.092
19.500,0.996
19.567,1.100
19.567,0.818
19.617,0.750
19.652,0.813
19.717,0.660
20.176,0.820
20.274,0.813
20.358,0.840
20.437,0.821
20.440,0.854
20.509,0.948
20.637,1.054
20.708,0.820
20.798,0.587
20.865,0.890
20.910,1.101
20.926,1.156
20.971,0.990
20.987,0.890
21.032,1.120
21.048,0.776
21.090,1.060
21.097,1.083
21.132,0.560
21.174,0.865
21.217,0.500
21.261,0.826
21.305,0.872
21.349,1.048
21.393,1.230
21.439,1.099
21.555,0.618
21.558,0.522
21.564,0.658
21.568,0.652
21.573,0.701
21.577,1.029
21.582,0.497
21.586,0.645
21.590,0.289
21.595,0.930
21.599,0.769
21.602,0.740
21.604,0.833
21.611,0.208
21.613,0.339
21.617,0.482
21.625,0.780
21.637,0.357
21.641,0.662
21.643,1.304
21.645,0.832
21.646,1.360
21.646,1.360
21.648,0.814
21.656,0.644
21.663,1.023
21.665,1.116
21.667,0.996
21.669,1.018
21.672,1.113
21.677,0.668
21.679,0.490
21.681,0.883
21.682,0.630
21.683,0.708
21.685,0.611
21.689,0.901
21.694,0.810
21.699,0.996
21.707,0.333
21.715,1.035
21.723,0.806
21.728,0.850
21.732,0.652
21.736,0.930
21.738,1.564
21.740,1.043
21.743,0.881
21.745,0.862
21.751,0.692
21.756,0.877
21.763,1.120
21.769,0.870
21.775,1.217
21.777,0.928
21.779,1.100
21.780,1.282
21.782,1.222
21.785,1.191
21.787,1.145
21.790,1.500
21.793,1.231
21.799,1.384
21.806,1.343
21.812,1.135
21.818,1.365
21.821,1.130
21.832,1.232
21.847,0.945
21.849,1.200
21.863,1.105
21.867,1.330
21.875,1.414
21.890,1.150
21.899,1.290
21.920,1.330
21.930,1.347
21.931,0.920
21.942,1.254
21.962,1.480
21.971,1.438
21.978,1.171
22.012,1.244
22.035,1.200
22.044,1.234
22.062,1.161
22.085,1.412
22.104,0.857
22.122,1.202
22.130,1.275
22.146,0.928
22.149,1.482
22.151,1.591
22.152,1.398
22.155,0.939
22.156,1.299
22.157,1.650
22.159,1.509
22.159,1.567
22.162,1.522
22.163,1.460
22.164,1.335
22.166,1.503
22.169,1.279
22.174,1.387
22.177,0.749
22.180,1.369
22.182,1.438
22.190,1.230
22.213,1.275
22.215,1.240
22.224,1.121
22.229,0.320
22.236,1.185
22.247,1.483
22.250,1.374
22.255,1.339
22.259,1.240
22.265,1.243
22.273,1.451
22.277,1.571
22.280,1.429
22.285,1.573
22.292,1.411
22.295,1.454
22.303,1.240
22.321,1.437
22.334,1.353
22.334,1.250
22.346,1.392
22.351,1.597
22.356,1.474
22.361,1.656
22.367,1.388
22.367,1.430
22.374,1.169
22.392,1.237
22.409,1.321
22.411,1.408
22.414,1.342
22.418,1.459
22.422,1.305
22.422,1.130
22.437,1.482
22.440,0.405
22.458,1.490
22.473,1.440
22.478,1.165
22.491,1.122
22.531,1.260
22.547,1.210
22.566,1.570
22.573,1.650
22.585,1.046
22.585,1.548
22.593,1.211
22.593,1.062
22.596,1.310
22.599,1.522
22.604,1.394
22.609,1.179
22.641,1.250
22.655,1.202
22.655,1.310
22.672,1.312
22.701,1.184
22.706,0.977
22.708,1.497
22.709,1.546
22.712,1.140
22.716,1.337
22.721,1.495
22.722,1.404
22.725,1.405
22.727,1.210
22.732,1.327
22.735,1.350
22.736,1.179
22.739,1.362
22.747,1.119
22.755,1.644
22.759,1.340
22.761,1.414
22.769,1.438
22.771,1.532
22.775,0.910
22.777,1.126
22.780,1.008
22.782,1.048
22.787,0.945
22.796,1.278
22.802,1.110
22.805,1.337
22.809,1.224
22.818,1.273
22.827,0.992
22.832,1.390
22.833,1.383
22.833,1.360
22.838,1.516
22.840,1.632
22.841,1.530
22.843,1.604
22.848,1.187
22.853,1.452
22.859,1.587
22.861,1.616
22.865,1.320
22.869,1.765
22.872,1.645
22.877,1.551
22.888,1.394
22.898,1.388
22.907,1.445
22.909,1.510
22.911,1.347
22.950,1.410
22.955,1.415
22.964,1.586
22.973,1.475
22.973,1.360
22.980,1.450
22.984,1.494
22.992,1.703
22.995,1.466
22.997,1.400
22.999,1.475
23.007,1.358
23.019,1.320
23.023,0.588
23.026,1.378
23.034,1.297
23.039,1.747
23.041,1.527
23.045,1.489
23.046,1.600
23.057,1.488
23.060,1.570
23.061,1.470
23.063,1.411
23.067,1.562
23.070,1.079
23.072,1.290
23.073,1.357
23.077,1.551
23.079,1.309
23.080,1.390
23.084,1.307
23.090,1.534
23.096,1.500
23.105,1.498
23.112,1.397
23.119,1.379
23.123,1.270
23.126,1.427
23.134,1.405
23.142,0.976
23.146,1.401
23.152,1.375
23.158,0.442
23.170,1.100
23.174,0.916
23.180,1.086
23.192,1.216
23.192,1.140
23.198,1.075
23.211,1.455
23.227,1.140
23.247,0.900
23.265,0.898
23.308,0.860
23.315,0.860
23.333,0.870
23.337,0.720
23.342,0.820
23.350,0.770
23.357,0.850
23.365,0.780
23.388,0.900
23.397,1.040
23.400,1.395
23.419,0.990
23.421,1.151
23.425,1.219
23.427,1.230
23.428,0.990
23.439,1.392
23.452,1.170
23.456,1.249
23.458,1.446
23.465,0.951
23.481,1.215
23.483,1.127
23.490,1.198
23.490,1.193
23.494,1.170
23.499,0.762
23.502,1.210
23.506,1.195
23.511,1.351
23.514,1.143
23.516,1.230
23.516,1.230
23.521,1.488
23.523,1.160
23.528,1.455
23.537,1.152
23.546,0.834
23.551,1.200
23.551,1.104
23.554,0.990
23.557,1.386
23.559,1.167
23.562,0.904
23.563,0.750
23.566,1.201
23.569,0.950
23.572,1.288
23.579,0.918
23.585,1.248
23.586,1.260
23.587,1.384
23.588,1.110
23.590,1.123
23.600,1.346
23.601,1.060
23.604,1.171
23.608,0.900
23.611,1.156
23.616,1.107
23.619,0.939
23.621,0.890
23.625,0.958
23.641,1.044
23.643,1.135
23.649,0.894
23.653,1.056
23.657,0.986
23.660,1.085
23.664,0.073
23.667,0.780
23.674,0.170
23.676,0.790
23.681,0.967
23.685,1.237
23.687,1.165
23.693,0.990
23.700,1.203
23.702,0.780
23.707,1.149
23.709,0.566
23.711,0.839
23.718,0.829
23.727,0.811
23.731,0.874
23.731,0.760
23.734,0.725
23.735,0.376
23.735,0.962
23.737,0.622
23.738,0.625
23.739,1.010
23.742,0.490
23.744,0.389
23.745,0.610
23.745,0.700
23.746,0.450
23.746,0.399
23.747,0.530
23.749,0.827
23.749,0.519
23.753,0.769
23.754,0.883
23.760,0.610
23.762,0.686
23.762,0.650
23.765,0.424
23.769,0.571
23.775,0.594
23.777,0.610
23.782,0.548
23.785,0.637
23.791,0.479
23.795,0.910
23.799,1.023
23.807,0.657
23.810,0.779
23.817,1.106
23.823,0.764
23.825,0.610
23.827,0.700
23.831,0.892
23.838,0.912
23.847,0.656
23.852,0.960
23.854,0.872
23.861,0.891
23.867,0.878
23.875,1.010
23.884,1.113
23.887,0.780
23.889,0.922
23.897,1.029
23.898,0.980
23.901,0.987
23.910,0.715
23.914,0.588
23.920,0.918
23.931,0.996
23.935,0.730
23.942,0.751
23.945,0.705
23.954,0.911
23.965,0.829
23.976,0.620
23.978,0.762
23.982,0.811
23.984,0.527
23.987,0.909
23.988,0.760
23.993,0.884
23.997,0.524
24.000,0.685
24.003,0.530
24.006,0.445
24.008,0.930
24.010,0.760
24.014,0.987
24.023,0.411
24.025,0.357
24.028,0.467
24.031,0.480
24.034,0.866
24.044,0.685
24.059,0.872
24.061,0.540
24.063,0.687
24.066,0.681
24.067,0.680
24.069,0.735
24.072,0.464
24.075,0.503
24.075,0.817
24.077,0.399
24.079,0.640
24.083,0.960
24.090,0.691
24.093,0.436
24.095,0.533
24.101,0.316
24.104,0.457
24.104,0.767
24.107,0.530
24.108,0.539
24.111,0.521
24.115,0.297
24.118,0.231
24.120,0.512
24.127,0.628
24.138,0.470
24.143,0.242
24.150,0.878
24.161,0.726
24.165,0.517
24.171,0.775
24.176,0.579
24.179,0.771
24.182,0.775
24.183,0.540
24.185,0.640
24.188,0.335
24.191,0.573
24.194,0.469
24.199,0.746
24.206,0.520
24.208,0.369
24.209,0.590
24.210,0.331
24.214,0.685
24.217,0.858
24.220,0.828
24.222,0.660
24.223,0.581
24.225,0.719
24.229,0.507
24.232,0.827
24.233,1.000
24.234,0.710
24.235,0.570
24.238,0.798
24.241,0.852
24.244,0.727
24.244,0.830
24.247,0.795
24.255,0.924
24.264,0.855
24.275,0.704
24.275,0.850
24.277,0.768
24.280,0.804
24.283,0.819
24.291,0.940
24.292,0.776
24.295,0.720
24.296,1.026
24.302,0.589
24.308,0.997
24.311,0.760
24.314,0.948
24.324,0.941
24.340,0.878
24.348,0.907
24.352,0.547
24.353,0.567
24.356,0.844
24.357,0.726
24.359,0.890
24.360,0.839
24.363,0.680
24.366,0.899
24.369,1.135
24.372,0.478
24.374,0.590
24.378,0.576
24.380,0.406
24.390,0.779
24.393,0.790
24.394,0.559
24.404,0.850
24.406,0.957
24.412,0.932
24.419,0.796
24.426,0.915
24.432,0.889
24.433,0.760
24.436,0.692
24.437,1.002
24.439,0.966
24.440,0.504
24.440,0.760
24.441,0.633
24.442,0.766
24.444,0.628
24.444,0.864
24.447,0.670
24.447,0.652
24.448,0.770
24.449,0.805
24.451,0.638
24.451,0.601
24.453,0.750
24.456,0.789
24.457,0.939
24.459,0.678
24.460,0.787
24.464,0.567
24.467,0.563
24.475,0.514
24.476,0.575
24.477,0.480
24.478,0.518
24.478,0.634
24.480,0.576
24.480,0.455
24.482,0.649
24.482,0.872
24.484,0.814
24.484,0.671
24.485,0.550
24.488,0.642
24.489,0.410
24.494,0.453
24.496,0.572
24.501,0.583
24.504,0.645
24.508,0.601
24.510,0.560
24.511,0.546
24.515,0.475
24.518,0.822
24.519,0.583
24.521,0.224
24.522,0.821
24.524,0.506
24.525,0.700
24.526,0.760
24.531,0.764
24.531,0.574
24.537,0.825
24.537,0.541
24.539,0.644
24.540,0.728
24.543,0.623
24.544,0.785
24.548,0.595
24.550,0.106
24.554,0.731
24.557,0.874
24.558,0.634
24.563,0.471
24.571,0.700
24.575,0.419
24.577,0.546
24.579,0.602
24.583,0.413
24.590,0.239
24.598,0.640
24.602,0.413
24.610,0.595
24.617,0.775
24.624,0.522
24.632,0.889
24.638,0.678
24.646,0.838
24.650,0.915
24.652,0.735
24.656,0.669
24.660,0.682
24.665,0.723
24.667,0.751
24.669,0.896
24.671,0.796
24.673,0.671
24.675,0.620
24.677,0.581
24.679,0.652
24.680,0.448
24.681,0.651
24.683,0.520
24.688,0.810
24.695,0.657
24.698,0.478
24.699,0.809
24.702,0.649
24.704,0.692
24.705,0.761
24.707,0.609
24.708,0.614
24.710,0.612
24.712,0.580
24.713,0.632
24.716,0.533
24.718,0.748
24.720,0.668
24.722,0.690
24.723,0.688
24.725,0.681
24.730,0.718
24.737,0.669
24.742,0.643
24.747,0.726
24.749,0.553
24.752,0.547
24.753,0.703
24.755,0.657
24.757,0.438
24.758,0.436
24.763,0.631
24.769,0.642
24.780,0.710
24.790,0.480
24.798,0.532
24.801,0.407
24.804,0.458
24.810,0.816
24.812,0.600
24.820,0.788
24.828,0.660
24.830,0.643
24.836,0.711
24.841,0.759
24.844,0.640
24.847,0.423
24.849,0.629
24.852,0.642
24.855,0.547
24.857,0.550
24.857,0.487
24.860,0.602
24.863,0.464
24.871,0.506
24.875,0.597
24.878,0.545
24.881,0.602
24.883,0.537
24.887,0.460
24.890,0.441
24.893,0.992
24.896,0.420
24.896,0.510
24.902,0.636
24.912,0.268
24.923,0.973
24.930,0.820
24.933,0.651
24.935,0.660
24.937,0.762
24.944,0.729
24.950,0.395
24.951,0.376
24.952,0.502
24.953,0.630
24.955,0.333
24.961,0.336
24.963,0.500
24.967,0.337
24.972,0.512
24.979,0.310
24.985,0.380
24.988,0.241
24.990,0.332
24.992,0.494
24.999,0.263
25.004,0.447
25.005,0.335
25.008,0.517
25.013,0.724
25.020,0.444
25.026,0.609
25.033,0.567
25.035,0.460
25.037,0.676
25.043,0.824
25.050,0.668
25.053,0.726
25.055,1.017
25.061,0.672
25.062,0.609
25.066,0.879
25.073,0.394
25.078,0.633
25.081,0.491
25.081,0.529
25.082,0.364
25.087,0.846
25.093,0.343
25.096,0.663
25.101,0.679
25.102,0.319
25.104,0.508
25.106,0.556
25.108,0.654
25.110,0.491
25.112,0.478
25.114,0.450
25.115,0.774
25.117,0.525
25.119,0.619
25.120,0.540
25.124,0.861
25.131,0.823
25.136,0.426
25.140,0.809
25.141,0.757
25.143,0.727
25.145,0.515
25.147,0.659
25.151,0.246
25.156,0.754
25.159,0.417
25.160,0.537
25.162,0.592
25.166,0.723
25.172,0.408
25.177,-0.128
25.183,0.528
25.186,0.443
25.188,0.522
25.190,0.792
25.191,0.444
25.193,0.474
25.196,0.867
25.197,0.402
25.198,0.540
25.201,0.737
25.206,0.837
25.212,0.512
25.217,0.783
25.220,0.591
25.222,0.704
25.226,0.772
25.229,0.659
25.230,0.510
25.231,0.547
25.233,0.576
25.235,0.567
25.235,0.669
25.236,0.501
25.238,0.554
25.241,0.421
25.247,0.415
25.253,0.661
25.260,0.617
25.266,0.206
25.274,0.559
25.280,0.389
25.286,0.098
25.286,0.290
25.288,0.500
25.294,0.604
25.302,0.582
25.304,0.518
25.306,0.483
25.307,0.696
25.310,0.285
25.311,0.167
25.314,0.541
25.319,0.640
25.326,0.697
25.331,0.213
25.332,0.600
25.334,0.347
25.337,0.569
25.340,0.300
25.343,0.628
25.350,0.481
25.354,0.298
25.356,0.320
25.361,0.291
25.365,0.349
25.369,0.509
25.369,0.026
25.370,0.519
25.376,0.382
25.380,0.409
25.387,0.544
25.393,0.595
25.400,0.584
25.405,0.038
25.411,0.802
25.419,0.415
25.420,0.450
25.427,0.525
25.432,0.777
25.439,0.543
25.446,0.544
25.448,0.314
25.452,0.795
25.456,0.738
25.464,0.685
25.468,0.596
25.471,0.529
25.477,0.376
25.481,0.662
25.485,0.783
25.487,0.687
25.491,0.636
25.499,0.919
25.506,0.685
25.509,0.983
25.512,0.675
25.514,0.728
25.516,0.722
25.516,0.803
25.521,0.912
25.521,0.682
25.528,0.792
25.528,0.912
25.534,0.835
25.534,0.692
25.535,0.690
25.539,0.789
25.539,0.790
25.549,0.895
25.556,0.988
25.562,0.380
25.567,0.656
25.575,0.908
25.583,1.014
25.586,0.982
25.588,0.948
25.592,0.914
25.592,0.760
25.599,0.983
25.603,0.815
25.607,0.963
25.614,0.928
25.621,0.578
25.627,0.835
25.632,0.563
25.634,0.555
25.636,0.623
25.640,0.450
25.645,0.659
25.650,0.797
25.654,0.848
25.672,0.850
25.675,0.554
25.677,0.568
25.679,0.495
25.681,0.459
25.683,0.425
25.685,0.471
25.687,0.870
25.689,0.957
25.692,0.188
25.696,0.749
25.703,0.645
25.707,0.534
25.708,0.397
25.710,0.713
25.712,0.324
25.716,0.703
25.717,0.382
25.718,0.340
25.720,0.741
25.722,0.543
25.723,0.524
25.725,0.583
25.726,0.617
25.728,0.703
25.729,0.452
25.731,0.508
25.732,0.417
25.734,0.450
25.735,-0.150
25.735,0.319
25.737,0.522
25.740,0.749
25.742,0.998
25.744,0.697
25.747,0.614
25.749,0.983
25.750,0.586
25.756,0.377
25.761,0.800
25.762,0.694
25.763,1.001
25.764,0.375
25.766,1.163
25.767,0.780
25.768,0.369
25.771,0.731
25.773,0.489
25.777,0.856
25.781,0.777
25.782,0.886
25.782,0.886
25.784,0.935
25.789,0.549
25.792,0.912
25.796,0.596
25.801,0.367
25.803,0.444
25.811,1.060
25.820,0.817
25.824,0.808
25.829,0.775
25.833,0.836
25.836,0.789
25.842,0.434
25.845,0.545
25.852,0.878
25.856,0.820
25.860,0.908
25.868,0.341
25.876,1.084
25.885,0.878
25.893,1.010
25.897,0.858
25.900,1.101
25.907,0.985
25.914,0.823
25.916,0.615
25.919,0.734
25.923,0.600
25.924,0.640
25.925,0.736
25.933,0.938
25.941,0.628
25.945,0.898
25.953,0.737
25.954,0.977
25.955,0.791
25.959,0.740
25.966,1.013
25.969,1.070
25.974,0.792
25.975,0.713
25.978,1.077
25.983,1.141
25.986,0.877
25.991,0.669
25.997,0.619
26.002,0.890
26.003,0.859
26.009,0.558
26.014,0.550
26.016,1.019
26.018,0.618
26.019,0.595
26.019,0.998
26.021,1.069
26.026,0.860
26.028,0.426
26.029,0.587
26.030,0.775
26.031,0.762
26.032,0.309
26.034,0.463
26.036,0.307
26.037,0.832
26.038,0.765
26.039,0.738
26.040,0.603
26.042,0.384
26.043,0.507
26.046,0.811
26.049,0.671
26.052,0.763
26.056,0.667
26.058,0.504
26.059,0.721
26.063,0.761
26.063,0.516
26.069,0.525
26.069,0.733
26.069,0.660
26.072,0.705
26.072,0.549
26.076,0.409
26.077,0.241
26.077,0.512
26.079,0.490
26.079,0.673
26.084,0.533
26.084,0.567
26.088,0.614
26.088,0.519
26.090,0.710
26.090,0.455
26.092,0.528
26.095,0.570
26.099,0.473
26.100,0.269
26.101,0.280
26.102,0.468
26.104,0.396
26.105,0.118
26.107,-0.034
26.109,0.555
26.110,0.618
26.112,0.608
26.114,0.672
26.117,0.612
26.119,0.166
26.120,0.400
26.121,0.232
26.124,0.113
26.126,0.286
26.129,0.027
26.131,0.370
26.137,0.913
26.150,0.524
26.157,0.803
26.163,0.934
26.165,0.860
26.168,0.617
26.172,0.735
26.179,0.690
26.183,0.701
26.188,0.462
26.190,0.666
26.193,0.590
26.198,0.628
26.205,0.689
26.209,0.784
26.212,0.700
26.214,0.488
26.216,0.794
26.218,0.518
26.223,0.488
26.227,0.840
26.229,0.481
26.232,0.543
26.233,0.575
26.235,0.502
26.239,0.824
26.239,0.904
26.240,0.722
26.243,0.813
26.247,0.727
26.250,0.972
26.255,0.686
26.259,0.883
26.265,0.988
26.266,0.715
26.268,0.966
26.269,0.877
26.270,0.780
26.271,0.860
26.272,0.777
26.273,0.840
26.275,0.554
26.276,0.650
26.280,0.663
26.285,1.046
26.290,0.485
26.293,0.930
26.297,0.770
26.299,0.898
26.302,0.656
26.308,0.547
26.312,0.670
26.313,0.616
26.315,0.388
26.321,0.806
26.327,1.021
26.339,0.744
26.346,1.085
26.352,0.619
26.357,1.196
26.359,0.753
26.363,0.752
26.363,0.660
26.368,0.553
26.369,0.435
26.373,0.776
26.378,0.404
26.382,0.749
26.388,0.366
26.395,0.699
26.401,1.119
26.408,0.586
26.415,0.586
26.419,0.545
26.426,0.555
26.431,0.295
26.433,0.473
26.438,0.834
26.445,0.685
26.448,0.719
26.453,0.958
26.460,0.364
26.463,0.695
26.463,0.170
26.465,0.620
26.468,0.777
26.470,0.518
26.478,0.354
26.485,0.467
26.490,0.754
26.492,0.960
26.494,0.717
26.499,0.293
26.505,0.350
26.506,-0.003
26.509,0.436
26.516,0.655
26.520,0.273
26.520,0.452
26.524,0.875
26.526,0.351
26.526,0.499
26.527,0.923
26.529,0.718
26.531,0.560
26.532,0.820
26.532,0.729
26.532,1.143
26.534,0.650
26.535,0.801
26.535,0.630
26.542,0.922
26.542,0.868
26.542,0.550
26.545,0.571
26.550,0.908
26.551,0.481
26.551,0.758
26.556,0.460
26.559,0.609
26.563,0.800
26.566,0.630
26.566,0.550
26.572,0.378
26.575,0.305
26.577,0.646
26.584,0.801
26.584,0.643
26.587,0.543
26.591,0.213
26.592,0.663
26.594,0.228
26.598,0.479
26.598,0.461
26.600,0.213
26.602,0.540
26.602,0.196
26.602,0.445
26.606,0.971
26.607,0.701
26.607,0.861
26.607,0.722
26.611,0.931
26.611,0.636
26.612,0.941
26.614,0.808
26.615,0.420
26.616,0.787
26.623,0.752
26.624,0.852
26.624,0.834
26.631,0.607
26.631,0.711
26.639,0.775
26.641,0.797
26.641,0.579
26.647,0.742
26.649,0.680
26.649,0.580
26.649,0.891
26.649,0.589
26.654,0.570
26.655,0.832
26.655,0.760
26.664,0.712
26.664,0.623
26.664,0.580
26.669,0.490
26.672,0.916
26.672,0.545
26.675,0.736
26.675,0.615
26.679,0.641
26.679,0.541
26.679,0.622
26.681,0.768
26.681,0.708
26.686,0.538
26.686,0.619
26.690,0.427
26.690,0.770
26.693,1.011
26.693,0.381
26.696,0.979
26.700,0.940
26.700,0.899
26.704,0.896
26.705,0.634
26.705,0.590
26.709,0.802
26.711,0.607
26.711,0.620
26.713,0.694
26.732,1.162
26.732,1.162
26.733,0.874
26.733,0.835
26.737,0.825
26.737,1.064
26.741,0.876
26.741,0.650
26.741,0.649
26.745,0.588
26.751,0.826
26.756,0.714
26.762,0.777
26.770,0.909
26.774,1.080
26.774,0.908
26.778,1.076
26.782,0.815
26.784,0.812
26.784,0.746
26.788,0.906
26.792,0.998
26.796,0.620
26.800,0.576
26.803,1.072
26.804,0.731
26.808,0.878
26.812,1.072
26.816,0.664
26.820,0.655
26.820,0.434
26.824,0.899
26.824,0.997
26.827,0.806
26.830,0.800
26.830,0.718
26.835,0.508
26.835,0.505
26.844,0.794
26.844,0.794
26.852,0.800
26.852,0.880
26.857,0.678
26.857,0.717
26.863,0.703
26.866,0.947
26.879,0.388
26.882,0.668
26.893,0.640
26.893,0.544
26.899,0.795
26.899,0.953
26.902,1.018
26.906,1.020
26.906,0.836
26.909,0.807
26.910,0.849
26.913,1.002
26.916,0.816
26.920,0.878
26.923,0.743
26.926,0.460
26.926,0.550
26.926,0.613
26.930,0.597
26.933,0.769
26.937,0.893
26.940,0.815
26.944,0.983
26.948,0.983
26.951,0.941
26.964,0.280
26.976,0.959
26.983,0.511
26.985,0.716
26.990,0.350
26.999,0.764
27.002,0.525
27.002,0.799
27.009,0.871
27.010,0.583
27.010,0.643
27.014,0.847
27.021,0.858
27.024,0.678
27.027,0.491
27.027,0.666
27.027,0.666
27.027,0.666
27.027,0.666
27.027,0.666
27.027,0.870
27.031,0.887
27.031,0.810
27.035,0.550
27.043,0.644
27.043,0.732
27.056,0.577
27.068,0.587
27.082,0.629
27.090,0.596
27.091,0.593
27.096,0.772
27.102,0.449
27.104,0.670
27.110,0.821
27.123,0.510
27.127,0.967
27.133,1.095
27.141,0.796
27.154,0.468
27.170,0.580
27.183,0.493
27.194,0.644
27.202,0.930
27.206,0.530
27.207,0.537
27.209,0.421
27.210,0.450
27.210,0.541
27.214,0.523
27.216,0.614
27.218,0.843
27.221,0.658
27.224,0.752
27.225,0.610
27.228,0.258
27.235,0.010
27.238,0.339
27.244,0.456
27.245,0.594
27.250,0.392
27.257,0.574
27.260,0.685
27.264,0.649
27.271,0.579
27.275,0.417
27.283,0.613
27.296,0.566
27.296,0.546
27.300,0.374
27.302,0.380
27.303,0.320
27.307,0.404
27.308,0.430
27.310,0.434
27.314,0.447
27.318,0.431
27.323,0.348
27.338,0.448
27.347,0.232
27.354,0.334
27.359,0.370
27.364,0.217
27.370,0.260
27.375,0.575
27.379,0.804
27.384,0.978
27.388,0.510
27.399,0.711
27.412,0.530
27.413,0.510
27.417,0.655
27.417,0.505
27.424,0.746
27.431,0.683
27.431,0.548
27.432,0.670
27.437,0.428
27.447,0.588
27.450,0.708
27.453,0.737
27.462,0.598
27.470,0.603
27.471,0.467
27.471,0.602
27.482,0.598
27.491,0.921
27.491,0.640
27.492,0.630
27.497,0.796
27.497,0.733
27.500,0.867
27.500,0.753
27.502,0.680
27.504,0.778
27.504,0.754
27.504,0.804
27.511,0.443
27.515,0.587
27.515,0.635
27.515,0.543
27.516,0.680
27.520,0.658
27.520,0.705
27.528,0.763
27.528,0.737
27.529,0.630
27.532,0.785
27.532,0.900
27.533,0.671
27.533,0.550
27.535,0.637
27.535,0.761
27.536,0.631
27.539,0.617
27.539,0.628
27.542,0.770
27.544,0.788
27.545,0.600
27.546,0.807
27.546,0.829
27.546,0.837
27.548,0.738
27.552,0.468
27.552,0.440
27.559,0.423
27.559,0.558
27.560,0.401
27.560,0.733
27.560,0.637
27.563,0.557
27.564,0.530
27.564,0.317
27.566,0.392
27.568,0.210
27.569,0.292
27.569,0.405
27.572,0.490
27.572,0.455
27.576,0.658
27.586,0.644
27.598,0.510
27.598,0.657
27.608,0.464
27.610,0.298
27.615,0.558
27.615,0.276
27.619,0.477
27.619,0.505
27.631,0.521
27.646,0.430
27.646,0.609
27.662,0.483
27.678,0.480
27.690,0.421
27.695,0.276
27.695,0.411
27.701,0.439
27.703,0.261
27.708,0.317
27.708,0.581
27.722,0.139
27.722,0.041
27.723,0.457
27.728,0.252
27.729,0.466
27.735,0.449
27.739,0.027
27.742,0.360
27.746,0.114
27.749,0.292
27.759,0.176
27.764,0.184
27.768,0.396
27.768,0.823
27.772,0.518
27.772,0.656
27.776,0.546
27.780,0.363
27.785,0.574
27.785,0.485
27.798,0.699
27.809,0.556
27.809,0.714
27.821,0.592
27.825,0.640
27.834,0.353
27.884,0.991
27.884,0.680
27.889,0.670
27.896,0.277
27.912,0.586
27.917,0.593
27.925,0.552
27.925,0.454
27.938,0.799
27.940,0.717
27.943,0.890
27.943,0.560
27.947,0.729
27.951,0.793
27.960,0.891
27.960,0.570
27.975,0.763
27.986,0.674
28.000,0.278
28.008,0.258
28.019,0.436
28.026,0.399
28.028,0.294
28.031,0.802
28.035,0.622
28.046,0.481
28.058,0.427
28.070,0.357
28.075,0.165
28.077,0.368
28.078,0.134
28.084,0.825
28.089,0.266
28.096,0.110
28.097,0.053
28.097,0.010
28.100,0.267
28.100,0.008
28.104,0.466
28.109,0.549
28.112,0.148
28.113,0.180
28.113,0.442
28.115,0.405
28.122,0.136
28.128,0.136
28.129,0.270
28.131,0.302
28.134,0.429
28.134,0.259
28.137,0.368
28.137,0.220
28.146,0.338
28.153,0.072
28.155,0.210
28.156,-0.008
28.160,0.143
28.164,0.316
28.173,0.573
28.185,0.565
28.185,0.401
28.190,0.330
28.194,0.367
28.201,0.426
28.204,0.335
28.211,0.154
28.211,0.301
28.220,0.427
28.226,0.340
28.229,0.070
28.237,0.182
28.237,0.338
28.240,0.783
28.250,0.376
28.252,0.378
28.252,0.078
28.253,0.499
28.259,0.331
28.260,0.380
28.261,0.750
28.268,0.424
28.272,0.636
28.276,0.384
28.281,0.451
28.287,0.490
28.293,0.461
28.294,0.650
28.296,0.963
28.304,0.565
28.313,0.544
28.326,0.445
28.339,0.470
28.352,0.375
28.352,0.300
28.364,0.781
28.377,0.596
28.383,0.347
28.386,0.325
28.390,0.316
28.393,0.377
28.396,0.538
28.399,0.403
28.402,0.480
28.405,0.520
28.407,0.400
28.408,0.494
28.411,0.364
28.419,0.727
28.425,0.639
28.430,0.622
28.433,0.641
28.434,0.500
28.439,0.242
28.444,0.225
28.456,0.445
28.457,0.500
28.460,0.359
28.469,0.354
28.471,0.412
28.474,0.056
28.476,0.267
28.476,0.460
28.484,0.149
28.487,0.170
28.491,0.421
28.498,0.426
28.503,0.649
28.503,0.649
28.503,0.649
28.503,0.649
28.504,0.275
28.506,0.353
28.509,-0.025
28.511,0.120
28.516,-0.003
28.525,0.264
28.528,0.420
28.539,0.283
28.557,0.057
28.557,0.070
28.569,0.272
28.573,0.083
28.576,0.150
28.580,-0.138
28.584,0.041
28.587,0.227
28.591,0.072
28.595,0.195
28.599,0.070
28.603,-0.183
28.604,0.102
28.607,0.062
28.609,0.414
28.614,0.602
28.623,0.375
28.625,0.267
28.627,0.100
28.628,0.006
28.630,0.177
28.631,0.261
28.631,-0.062
28.633,0.095
28.633,0.101
28.634,0.233
28.634,0.444
28.635,0.474
28.638,0.259
28.638,0.274
28.641,0.322
28.644,0.311
28.647,0.231
28.650,0.603
28.652,0.283
28.657,0.366
28.663,0.487
28.664,0.464
28.664,0.029
28.667,0.139
28.668,0.140
28.670,0.167
28.673,0.171
28.680,0.200
28.685,0.450
28.691,0.467
28.691,0.453
28.702,0.521
28.712,0.674
28.722,0.201
28.735,0.576
28.742,0.620
28.748,0.312
28.759,0.594
28.772,0.428
28.776,0.253
28.776,0.409
28.787,0.468
28.792,0.550
28.793,0.388
28.798,0.471
28.801,0.072
28.801,0.176
28.809,0.598
28.820,0.411
28.822,0.575
28.825,0.401
28.825,0.255
28.832,0.482
28.836,0.409
28.842,0.109
28.852,0.591
28.857,0.256
28.859,0.207
28.866,0.253
28.870,0.115
28.873,0.404
28.876,0.152
28.878,0.340
28.881,0.277
28.887,0.678
28.894,0.697
28.901,0.682
28.905,0.299
28.909,0.266
28.909,0.476
28.912,0.229
28.917,0.149
28.923,0.591
28.924,0.232
28.928,0.772
28.930,0.368
28.930,0.192
28.931,0.563
28.931,0.513
28.936,0.555
28.939,0.415
28.943,0.574
28.945,0.420
28.952,0.063
28.961,0.378
28.967,0.486
28.973,0.317
28.978,0.450
28.979,0.454
28.990,0.542
28.994,0.512
28.994,0.435
28.997,0.511
29.007,0.568
29.009,0.730
29.016,0.528
29.021,0.509
29.028,0.364
29.031,0.269
29.034,0.570
29.036,0.679
29.039,0.522
29.042,0.266
29.042,0.211
29.046,0.291
29.050,0.364
29.053,0.397
29.056,0.465
29.060,0.393
29.071,0.426
29.072,0.676
29.073,0.412
29.079,0.236
29.085,0.482
29.087,0.471
29.090,0.102
29.093,0.550
29.097,0.637
29.104,0.389
29.107,0.463
29.111,0.428
29.118,0.350
29.119,0.450
29.120,0.450
29.126,0.100
29.132,0.570
29.140,0.340
29.147,0.358
29.152,0.477
29.160,0.393
29.163,0.226
29.167,0.501
29.169,0.487
29.170,0.559
29.180,0.566
29.186,0.364
29.190,0.498
29.196,0.193
29.198,0.390
29.198,0.390
29.201,0.272
29.202,0.530
29.204,0.484
29.212,0.268
29.218,0.250
29.223,0.349
29.228,0.270
29.230,0.152
29.237,-0.007
29.246,0.418
29.249,0.383
29.249,0.516
29.258,0.458
29.258,0.608
29.258,0.608
29.258,0.608
29.258,0.608
29.258,0.608
29.267,0.154
29.270,0.459
29.279,0.297
29.283,0.440
29.283,0.450
29.287,0.335
29.295,0.304
29.304,0.231
29.304,0.232
29.306,-0.065
29.307,0.234
29.309,-0.123
29.309,0.222
29.312,0.290
29.312,0.155
29.312,-0.029
29.314,0.210
29.315,-0.008
29.316,0.157
29.316,0.137
29.317,0.123
29.317,0.019
29.318,0.158
29.325,0.075
29.325,0.053
29.331,-0.085
29.334,0.239
29.338,0.367
29.343,0.156
29.345,0.323
29.348,0.232
29.350,-0.084
29.350,0.370
29.354,-0.050
29.361,0.210
29.363,0.265
29.366,0.330
29.370,0.167
29.370,0.378
29.376,0.515
29.376,0.710
29.378,0.520
29.381,0.718
29.390,0.473
29.393,0.384
29.401,0.305
29.405,0.128
29.405,0.072
29.406,0.520
29.407,0.680
29.409,0.307
29.409,0.276
29.413,0.336
29.417,0.439
29.421,0.145
29.429,0.351
29.430,0.477
29.436,0.027
29.447,0.123
29.447,0.405
29.451,0.243
29.451,0.409
29.456,0.047
29.456,0.436
29.457,0.296
29.458,0.426
29.458,0.426
29.459,0.705
29.461,0.179
29.467,0.162
29.474,0.648
29.478,0.325
29.486,0.602
29.488,0.445
29.500,0.446
29.511,0.308
29.511,0.308
29.514,0.796
29.514,0.385
29.526,0.431
29.533,0.506
29.536,0.332
29.549,0.610
29.553,0.375
29.563,0.728
29.566,0.739
29.570,0.708
29.570,0.424
29.574,0.767
29.582,0.654
29.585,0.936
29.589,0.621
29.593,0.352
29.597,0.144
29.602,0.618
29.602,0.295
29.603,0.389
29.605,0.351
29.606,0.650
29.606,0.650
29.607,0.477
29.609,0.382
29.611,0.177
29.612,0.127
29.612,0.295
29.615,0.122
29.616,0.572
29.618,0.443
29.618,0.245
29.620,0.176
29.621,0.263
29.621,0.158
29.626,0.409
29.628,0.422
29.628,0.422
29.631,0.305
29.638,0.190
29.643,0.295
29.656,0.369
29.673,0.314
29.686,0.544
29.691,0.340
29.701,0.265
29.707,-0.034
29.713,0.159
29.713,0.163
29.734,0.163
29.734,-0.028
29.741,0.230
29.746,0.000
29.755,0.224
29.758,0.090
29.758,0.068
29.761,0.473
29.764,-0.119
29.764,0.062
29.767,0.480
29.772,0.683
29.782,0.626
29.791,0.411
29.791,0.487
29.800,0.423
29.810,0.457
29.814,0.310
29.817,0.255
29.820,0.264
29.822,0.167
29.824,0.344
29.826,0.360
29.827,0.298
29.827,0.216
29.830,0.523
29.835,0.175
29.839,-0.031
29.843,0.180
29.846,0.340
29.848,0.217
29.849,0.491
29.850,0.827
29.852,0.478
29.852,0.449
29.852,0.746
29.854,0.664
29.857,0.205
29.861,0.028
29.866,0.475
29.870,0.617
29.870,0.501
29.872,0.243
29.872,0.589
29.875,0.446
29.880,0.591
29.880,0.626
29.886,0.781
29.886,0.440
29.893,0.671
29.898,0.098
29.898,0.681
29.903,0.738
29.910,0.596
29.910,0.443
29.917,0.580
29.917,0.662
29.924,0.395
29.924,0.788
29.928,0.618
29.930,0.924
29.930,0.367
29.932,0.797
29.936,0.903
29.936,0.534
29.936,0.438
29.938,0.694
29.939,0.819
29.943,0.810
29.943,0.771
29.943,0.750
29.948,0.510
29.950,0.535
29.950,0.384
29.952,0.240
29.953,0.411
29.953,0.428
29.955,0.443
29.957,0.380
29.957,0.613
29.962,0.556
29.964,0.508
29.965,0.387
29.968,0.665
29.968,0.446
29.970,0.648
29.972,0.580
29.972,0.446
29.972,0.668
29.974,0.593
29.978,0.965
29.979,0.868
29.981,0.818
29.987,0.547
29.993,0.592
29.996,0.720
29.996,0.720
29.999,0.667
30.005,0.535
30.012,0.634
30.017,0.664
30.022,0.638
30.025,0.690
30.031,0.590
30.036,0.671
30.038,0.671
30.040,0.672
30.041,0.441
30.042,0.587
30.044,0.638
30.045,0.875
30.047,0.680
30.049,0.636
30.051,0.607
30.053,0.777
30.055,0.579
30.057,0.785
30.059,0.614
30.059,0.730
30.060,0.341
30.062,0.637
30.064,0.772
30.066,0.646
30.068,0.583
30.070,0.693
30.072,0.569
30.074,0.796
30.076,0.607
30.079,0.513
30.083,0.410
30.085,0.458
30.087,0.557
30.091,0.365
30.096,0.642
30.098,0.661
30.101,0.450
30.107,0.668
30.109,0.478
30.115,0.368
30.121,0.414
30.124,0.290
30.128,0.554
30.136,0.462
30.143,0.674
30.151,0.434
30.159,0.617
30.166,0.525
30.173,0.596
30.180,0.619
30.187,0.485
30.195,0.409
30.198,0.248
30.203,0.576
30.209,0.493
30.213,0.137
30.219,0.297
30.220,0.434
30.223,0.437
30.226,0.721
30.228,0.615
30.231,0.562
30.233,0.771
30.234,0.490
30.236,0.521
30.239,0.671
30.241,0.643
30.246,0.431
30.247,0.670
30.250,0.888
30.252,0.760
30.253,0.630
30.258,0.539
30.259,0.473
30.261,0.613
30.262,0.438
30.262,0.548
30.262,0.516
30.264,0.552
30.265,0.574
30.268,0.742
30.273,0.758
30.278,0.732
30.281,0.561
30.282,0.779
30.284,0.627
30.287,0.541
30.288,0.334
30.290,0.479
30.298,0.620
30.306,0.649
30.309,0.564
30.311,0.454
30.318,0.608
30.322,0.623
30.324,0.732
30.327,0.642
30.333,0.585
30.334,0.500
30.337,0.599
30.343,0.765
30.350,0.691
30.357,0.802
30.365,0.765
30.373,0.730
30.380,0.766
30.386,0.655
30.388,0.827
30.391,0.810
30.392,0.940
30.392,0.940
30.392,0.940
30.392,0.940
30.395,0.751
30.395,0.728
30.403,0.839
30.410,0.797
30.417,0.775
30.425,0.792
30.433,0.594
30.435,0.459
30.440,0.704
30.444,0.475
30.447,0.744
30.449,0.460
30.450,0.458
30.454,0.661
30.463,0.786
30.468,0.551
30.470,0.669
30.472,1.042
30.474,0.652
30.476,0.506
30.481,0.499
30.488,0.718
30.488,0.570
30.490,0.555
30.495,0.601
30.498,0.727
30.500,0.710
30.503,0.795
30.505,0.849
30.506,0.824
30.507,0.641
30.508,0.719
30.509,0.654
30.510,0.649
30.511,0.944
30.512,0.887
30.514,0.853
30.515,1.020
30.515,0.390
30.520,0.466
30.524,0.750
30.526,0.517
30.528,0.431
30.534,0.662
30.543,0.549
30.552,0.309
30.560,0.560
30.564,0.533
30.570,0.494
30.578,0.696
30.587,0.396
30.595,0.429
30.600,0.459
30.602,0.522
30.605,0.364
30.607,0.451
30.615,0.785
30.622,0.815
30.628,0.540
30.628,0.234
30.631,0.939
30.633,0.940
30.639,0.730
30.647,0.835
30.655,0.792
30.657,0.875
30.660,0.938
30.666,0.690
30.674,0.691
30.677,0.706
30.681,0.560
30.686,0.942
30.688,0.696
30.691,0.836
30.697,0.790
30.700,0.523
30.704,0.851
30.707,0.747
30.709,0.759
30.712,0.690
30.714,0.857
30.716,0.848
30.719,0.944
30.721,0.772
30.723,0.971
30.726,0.749
30.731,0.898
30.739,0.939
30.744,0.880
30.751,0.700
30.757,0.842
30.766,0.710
30.771,0.800
30.780,0.898
30.787,0.857
30.790,0.816
30.792,0.810
30.797,0.802
30.800,0.660
30.802,0.810
30.804,0.662
30.809,0.707
30.817,0.829
30.824,0.869
30.826,0.800
30.828,1.021
30.831,0.582
30.834,0.647
30.841,0.939
30.843,0.838
30.846,0.973
30.848,0.691
30.850,0.533
30.853,0.765
30.856,0.898
30.863,0.965
30.868,0.805
30.868,0.805
30.872,0.723
30.880,0.865
30.882,1.134
30.884,0.974
30.887,1.006
30.889,0.834
30.891,1.207
30.894,0.996
30.896,1.060
30.897,1.130
30.898,0.932
30.900,0.940
30.902,0.920
30.904,0.880
30.906,1.177
30.907,0.890
30.909,0.970
30.909,0.970
30.910,0.998
30.912,0.890
30.914,0.952
30.914,0.620
30.919,0.620
30.920,0.769
30.923,0.530
30.927,0.730
30.933,1.060
30.937,0.810
30.940,0.830
30.946,0.890
30.952,0.730
30.958,0.750
30.959,0.750
30.965,0.710
30.971,0.840
30.977,1.020
30.978,1.113
30.979,1.170
30.983,0.710
30.991,0.870
31.000,0.910
31.007,0.820
31.013,1.050
31.013,1.050
31.015,0.870
31.017,1.140
31.018,1.100
31.022,0.990
31.023,1.040
31.025,0.980
31.027,0.860
31.029,0.790
31.032,0.550
31.039,0.660
31.040,0.660
31.042,0.640
31.045,1.120
31.047,0.880
31.049,0.870
31.050,0.666
31.051,1.030
31.053,1.010
31.055,0.930
31.057,0.920
31.058,0.810
31.060,0.970
31.060,0.970
31.062,0.720
31.069,0.800
31.071,0.870
31.075,0.760
31.082,0.690
31.084,0.710
31.086,0.930
31.088,0.620
31.090,0.640
31.091,0.830
31.098,1.030
31.105,0.750
31.107,0.870
31.109,0.830
31.112,0.780
31.114,1.210
31.115,0.830
31.121,0.900
31.127,1.160
31.129,1.120
31.129,1.120
31.132,1.030
31.140,0.990
31.145,0.900
31.152,0.810
31.159,1.030
31.160,0.790
31.163,0.720
31.168,1.020
31.170,1.080
31.173,0.940
31.173,0.940
31.181,1.250
31.187,0.940
31.195,1.210
31.202,0.870
31.210,0.990
31.218,0.980
31.225,0.880
31.233,0.690
31.240,1.000
31.246,0.950
31.246,0.950
31.248,1.050
31.250,1.120
31.252,1.140
31.254,0.850
31.255,1.210
31.256,1.000
31.258,0.800
31.260,0.770
31.263,0.750
31.267,0.690
31.267,0.690
31.271,0.920
31.278,1.020
31.285,0.900
31.292,0.960
31.297,0.600
31.300,0.730
31.303,0.650
31.305,0.490
31.307,0.420
31.308,0.480
31.308,0.480
31.310,0.650
31.311,0.720
31.315,0.520
31.320,0.530
31.326,0.640
31.331,0.510
31.335,0.450
31.340,0.470
31.345,0.570
31.350,0.460
31.350,0.460
31.356,0.580
31.356,0.515
31.362,0.500
31.368,0.770
31.373,0.650
31.376,0.830
31.379,0.890
31.380,0.610
31.382,0.520
31.383,0.530
31.386,0.730
31.386,0.730
31.387,0.600
31.389,0.700
31.390,0.600
31.392,0.660
31.395,0.690
31.400,0.850
31.403,0.690
31.408,0.690
31.414,0.620
31.419,0.730
31.419,0.730
31.422,0.520
31.423,0.740
31.426,0.390
31.430,0.470
31.431,0.760
31.431,0.620
31.432,0.620
31.433,0.600
31.433,0.736
31.434,0.780
31.434,0.720
31.435,0.620
31.436,0.420
31.437,0.510
31.438,0.550
31.438,0.750
31.439,0.620
31.440,0.470
31.441,0.710
31.441,0.710
31.441,0.660
31.442,0.940
31.443,0.840
31.444,0.820
31.445,0.590
31.445,0.770
31.446,0.690
31.447,0.710
31.450,0.500
31.454,0.970
31.456,0.760
31.457,0.740
31.459,0.690
31.461,0.700
31.464,1.182
31.465,0.767
31.465,0.767
31.470,0.790
31.472,0.840
31.474,1.000
31.475,0.850
31.477,1.050
31.478,1.130
31.479,0.950
31.481,0.850
31.483,0.910
31.489,0.840
31.489,0.840
31.495,1.030
31.499,0.990
31.504,0.900
31.508,1.000
31.509,0.930
31.511,1.050
31.515,0.780
31.520,0.870
31.522,0.915
31.523,0.810
31.523,0.810
31.526,0.770
31.528,0.980
31.531,0.800
31.534,0.700
31.535,0.768
31.538,1.070
31.542,0.750
31.544,0.760
31.545,0.720
31.548,0.942
31.548,0.942
31.552,1.220
31.556,0.800
31.558,0.880
31.560,0.750
31.562,0.884
31.563,0.880
31.565,0.790
31.566,0.930
31.569,0.910
31.573,0.935
31.577,1.110
31.577,1.110
31.578,0.870
31.580,0.895
31.581,0.840
31.583,0.890
31.587,1.190
31.592,0.850
31.597,0.740
31.602,0.790
31.607,0.830
31.607,0.830
31.611,0.900
31.616,0.810
31.622,0.880
31.628,0.800
31.632,0.720
31.634,0.820
31.636,0.820
31.639,0.750
31.641,0.650
31.643,0.650
31.643,0.650
31.646,0.810
31.650,0.820
31.656,0.750
31.663,0.850
31.669,0.670
31.671,0.670
31.674,0.650
31.678,0.780
31.684,0.800
31.688,0.690
31.688,0.690
31.691,0.460
31.692,0.620
31.694,0.430
31.696,0.710
31.702,1.006
31.709,0.303
31.714,0.650
31.717,0.620
31.719,0.670
31.721,0.820
31.721,0.820
31.723,0.600
31.725,0.840
31.726,0.720
31.730,0.618
31.737,0.730
31.741,0.980
31.746,0.610
31.751,0.860
31.758,0.880
31.764,0.846
31.766,0.764
31.767,0.960
31.767,0.960
31.773,0.763
31.775,0.808
31.778,0.790
31.780,0.610
31.780,0.766
31.784,0.768
31.784,0.563
31.786,0.680
31.788,0.600
31.788,0.566
31.789,0.665
31.789,0.665
31.791,0.510
31.793,0.698
31.795,0.665
31.797,0.590
31.803,0.555
31.806,0.770
31.810,0.646
31.814,0.870
31.819,0.500
31.823,0.476
31.823,0.476
31.829,0.387
31.836,0.494
31.842,0.550
31.848,0.544
31.852,0.752
31.852,0.752
31.859,0.677
31.865,0.750
31.871,0.721
31.878,0.739
31.883,0.725
31.889,0.860
31.895,0.881
31.901,0.845
31.906,0.743
31.912,0.630
31.912,0.630
31.918,0.600
31.924,0.758
31.929,0.743
31.936,0.810
31.940,0.866
31.941,0.543
31.952,0.780
31.953,0.911
31.955,0.750
31.955,0.750
31.956,0.697
31.958,0.700
31.960,0.681
31.961,0.630
31.963,0.621
31.965,0.710
31.968,0.716
31.971,0.721
31.976,0.866
31.981,0.860
31.981,0.860
31.984,0.772
31.986,0.729
31.987,0.745
31.991,0.685
31.992,0.824
31.995,0.688
32.000,0.804
32.004,0.798
32.004,0.990
32.011,0.770
32.011,0.920
32.017,0.850
32.017,0.850
32.017,1.035
32.022,1.090
32.022,0.738
32.023,1.020
32.024,1.005
32.025,1.015
32.028,0.896
32.029,0.960
32.031,0.920
32.035,0.817
32.037,0.920
32.037,0.920
32.041,0.790
32.043,0.750
32.047,0.900
32.054,0.816
32.062,0.770
32.062,0.770
32.066,0.810
32.068,0.619
32.070,0.770
32.072,0.910
32.074,0.870
32.076,0.740
32.078,0.840
32.080,0.570
32.082,0.640
32.087,0.470
32.092,0.780
32.094,0.850
32.096,0.810
32.100,0.750
32.107,0.650
32.113,0.780
32.115,0.660
32.118,0.780
32.120,0.854
32.122,0.910
32.122,0.910
32.124,0.876
32.124,0.780
32.126,0.730
32.128,0.920
32.131,0.560
32.134,0.850
32.142,0.770
32.146,0.730
32.149,0.830
32.154,0.870
32.157,0.760
32.157,0.760
32.159,0.750
32.165,0.760
32.173,0.710
32.175,0.510
32.177,0.623
32.179,0.600
32.181,0.590
32.183,0.780
32.185,0.730
32.187,0.700
32.187,0.700
32.189,0.650
32.194,0.300
32.198,0.570
32.200,0.500
32.201,0.420
32.204,0.290
32.209,0.780
32.214,0.480
32.217,0.630
32.221,0.370
32.227,0.820
32.229,0.600
32.231,0.840
32.234,0.830
32.241,0.790
32.244,0.800
32.248,0.748
32.255,0.850
32.263,0.856
32.267,0.721
32.267,0.721
32.274,0.890
32.276,0.800
32.281,0.960
32.285,0.763
32.287,0.765
32.289,0.846
32.290,0.620
32.292,0.680
32.295,0.663
32.298,0.740
32.298,0.740
32.300,0.871
32.304,0.655
32.306,0.768
32.308,0.586
32.314,0.580
32.318,0.430
32.320,0.542
32.325,0.870
32.333,0.922
32.333,0.922
32.337,0.887
32.343,0.884
32.350,0.816
32.355,0.800
32.358,0.710
32.359,0.738
32.363,0.960
32.370,0.987
32.372,0.909
32.377,1.065
32.377,1.065
32.384,0.941
32.391,0.980
32.396,0.850
32.399,0.846
32.403,0.650
32.405,0.784
32.408,0.871
32.410,0.858
32.410,0.764
32.413,1.020
32.417,0.980
32.417,0.980
32.422,0.920
32.424,0.827
32.426,0.969
32.427,0.833
32.428,0.856
32.429,0.840
32.431,0.800
32.432,0.810
32.433,0.949
32.436,0.967
32.441,0.939
32.441,0.939
32.443,0.777
32.444,0.893
32.446,0.975
32.450,0.900
32.451,0.849
32.451,0.689
32.454,0.917
32.457,0.909
32.459,0.967
32.462,0.888
32.462,0.888
32.464,0.914
32.465,0.738
32.466,0.901
32.467,0.851
32.468,0.861
32.469,0.836
32.470,0.914
32.471,0.929
32.478,0.765
32.478,0.765
32.483,0.760
32.483,0.883
32.484,0.700
32.485,0.763
32.486,0.831
32.487,0.718
32.488,0.552
32.490,0.812
32.492,0.771
32.493,1.022
32.494,0.917
32.498,0.772
32.498,0.772
32.500,0.859
32.503,0.731
32.505,0.742
32.507,0.688
32.508,0.914
32.512,0.793
32.513,0.704
32.517,0.918
32.520,0.946
32.524,0.930
32.526,0.745
32.526,0.745
32.532,0.996
32.538,0.880
32.540,0.834
32.542,0.797
32.544,0.862
32.546,0.941
32.548,0.916
32.552,0.809
32.557,0.690
32.559,0.739
32.559,0.739
32.560,0.776
32.562,0.586
32.564,0.821
32.566,0.774
32.568,0.801
32.572,0.714
32.575,0.623
32.577,0.709
32.581,0.833
32.588,0.788
32.588,0.788
32.593,0.598
32.599,0.716
32.604,0.770
32.605,0.958
32.607,0.880
32.611,0.808
32.617,0.879
32.621,1.097
32.622,0.996
32.625,1.135
32.625,1.135
32.630,1.118
32.631,1.162
32.633,0.967
32.635,0.886
32.636,0.976
32.638,1.033
32.640,1.013
32.642,0.993
32.646,0.803
32.651,1.057
32.651,1.057
32.658,1.152
32.664,0.978
32.671,0.811
32.678,1.003
32.683,0.930
32.691,0.898
32.695,0.838
32.700,0.889
32.708,0.739
32.713,0.989
32.713,0.989
32.715,0.750
32.726,0.971
32.731,0.936
32.731,0.936
32.734,0.988
32.741,1.026
32.749,1.091
32.754,1.072
32.756,0.938
32.756,0.938
32.758,0.805
32.760,0.931
32.762,0.952
32.764,0.957
32.766,0.962
32.766,0.962
32.773,1.324
32.780,1.372
32.786,1.060
32.794,1.045
32.798,0.842
32.798,0.842
32.801,1.065
32.807,1.141
32.824,0.863
32.828,1.123
32.828,1.123
32.830,1.176
32.835,0.910
32.841,1.038
32.844,1.100
32.844,1.100
32.846,1.060
32.849,1.141
32.855,1.118
32.861,1.164
32.871,0.817
32.871,0.817
32.871,0.817
32.871,0.900
32.876,1.080
32.878,0.880
32.880,0.940
32.880,0.760
32.882,0.896
32.882,1.000
32.885,0.950
32.885,0.950
32.890,1.090
32.894,0.960
32.900,1.170
32.908,1.120
32.911,0.900
32.911,0.900
32.913,1.210
32.915,1.100
32.916,1.090
32.916,1.117
32.924,0.980
32.924,0.980
32.931,1.000
32.935,0.840
32.941,1.000
32.942,0.980
32.942,0.980
32.947,0.750
32.952,0.890
32.964,0.900
32.972,1.030
32.975,1.000
32.975,1.000
32.979,0.900
32.983,1.010
32.990,0.960
33.000,1.060
33.007,1.190
33.015,1.020
33.020,1.050
33.025,0.980
33.027,1.020
33.029,1.030
33.029,1.030
33.031,1.010
33.035,1.010
33.043,1.070
33.047,0.980
33.053,1.010
33.053,1.010
33.061,0.870
33.070,1.000
33.078,0.840
33.087,1.020
33.093,1.030
33.093,1.030
33.098,0.910
33.103,0.930
33.112,0.960
33.118,0.800
33.126,1.120
33.136,1.080
33.136,1.080
33.145,1.090
33.154,1.090
33.163,1.140
33.172,1.130
33.181,1.160
33.190,1.170
33.190,1.170
33.199,0.970
33.208,1.220
33.215,0.970
33.219,1.120
33.219,1.080
33.226,1.230
33.226,1.230
33.228,1.170
33.230,1.060
33.232,0.980
33.239,1.290
33.246,1.090
33.246,1.090
33.253,1.260
33.260,1.280
33.265,1.260
33.273,1.230
33.288,1.450
33.288,1.450
33.306,1.310
33.325,1.150
33.345,1.090
33.357,0.960
33.368,1.350
33.368,1.350
33.371,1.470
33.374,1.460
33.378,1.440
33.381,1.320
33.381,1.320
33.392,1.240
33.399,1.450
33.402,1.320
33.405,1.310
33.409,1.310
33.409,1.310
33.413,1.237
33.418,1.360
33.421,1.370
33.425,1.280
33.432,1.180
33.439,1.130
33.441,1.440
33.443,1.520
33.447,1.430
33.449,1.430
33.449,1.430
33.451,1.320
33.453,1.200
33.454,1.409
33.455,1.460
33.456,1.408
33.456,1.408
33.457,1.370
33.458,1.387
33.460,1.250
33.460,1.250
33.461,1.271
33.463,1.320
33.463,1.461
33.465,1.423
33.467,1.491
33.467,1.491
33.469,1.372
33.472,1.214
33.480,1.312
33.485,1.325
33.488,1.343
33.488,1.343
33.491,1.353
33.493,1.509
33.495,1.426
33.500,1.273
33.509,1.346
33.509,1.346
33.511,1.356
33.513,1.360
33.515,1.480
33.517,1.417
33.519,1.293
33.527,1.272
33.527,1.272
33.536,1.290
33.546,1.242
33.554,1.408
33.555,1.437
33.557,1.510
33.557,1.437
33.558,1.363
33.560,1.473
33.561,1.390
33.563,1.497
33.565,1.391
33.565,1.497
33.567,1.459
33.568,1.496
33.572,1.288
33.578,1.533
33.581,1.413
33.581,1.533
33.587,1.387
33.591,1.512
33.593,1.560
33.595,1.560
33.596,1.629
33.596,1.560
33.598,1.481
33.599,1.572
33.601,1.668
33.603,1.564
33.604,1.662
33.604,1.564
33.606,1.649
33.607,1.553
33.609,1.566
33.611,1.503
33.612,1.623
33.612,1.503
33.614,1.426
33.616,1.437
33.618,1.666
33.620,1.459
33.622,1.675
33.622,1.675
33.623,1.519
33.625,1.541
33.627,1.624
33.631,1.402
33.631,1.402
33.632,1.530
33.634,1.553
33.636,1.523
33.638,1.477
33.640,1.488
33.640,1.488
33.642,1.726
33.644,1.765
33.645,1.548
33.647,1.514
33.649,1.636
33.649,1.636
33.651,1.433
33.653,1.280
33.655,1.375
33.656,1.472
33.658,1.560
33.660,1.352
33.664,1.317
33.668,1.170
33.673,1.251
33.673,1.251
33.676,1.029
33.680,1.062
33.682,1.062
33.684,1.050
33.684,1.050
33.686,1.246
33.688,1.257
33.690,1.189
33.692,1.142
33.695,1.329
33.695,1.329
33.697,1.074
33.699,1.310
33.702,1.075
33.703,0.962
33.703,1.076
33.706,0.937
33.710,1.154
33.710,1.154
33.714,1.110
33.718,1.288
33.722,1.297
33.725,1.176
33.729,1.279
33.733,1.087
33.733,1.087
33.737,1.209
33.741,1.141
33.745,0.879
33.748,0.935
33.752,0.976
33.752,0.976
33.756,0.832
33.760,1.027
33.767,1.091
33.769,0.844
33.769,0.844
33.773,1.018
33.775,0.954
33.780,1.231
33.780,0.900
33.780,1.231
33.786,1.175
33.787,1.369
33.791,1.176
33.794,1.235
33.800,0.927
33.800,0.927
33.807,1.069
33.811,1.069
33.811,0.718
33.814,0.957
33.821,1.003
33.827,1.066
33.833,0.984
33.833,0.984
33.841,1.025
33.843,0.857
33.846,0.969
33.852,1.205
33.858,1.025
33.866,1.134
33.866,1.134
33.874,1.032
33.884,1.238
33.884,1.238
33.895,0.973
33.905,1.048
33.915,1.009
33.928,0.993
33.946,0.671
34.174,0.357
34.222,0.953
34.250,0.873
34.295,0.442
34.316,0.575
34.324,0.724
34.398,0.760
34.480,0.716
34.509,0.606
34.531,0.664
34.608,0.726
34.749,0.792
34.765,0.768
34.784,0.758
34.985,0.742
35.112,0.753
35.177,0.786
35.296,0.760
35.296,0.710
35.324,0.820
35.324,0.710
35.343,0.539
35.375,0.630
35.411,0.830
35.454,1.030
35.863,1.070
36.138,1.060
36.138,1.040
36.225,1.130
36.340,1.060
36.399,0.920
36.486,0.580
36.692,0.630
36.813,0.790
37.035,0.642
37.091,0.770
37.485,0.953
37.558,0.500
37.630,0.470
37.738,0.680
37.873,0.786
37.971,0.580
38.092,0.730
38.092,0.820
38.212,0.867
38.329,0.712
38.329,0.650
38.337,0.720
38.437,0.539
38.460,0.600
38.513,0.760
38.576,0.450
38.636,0.612
38.689,0.454
38.736,0.590
38.790,0.810
38.791,0.850
38.860,0.530
39.010,0.590
39.107,0.610
39.109,0.650
39.138,0.680
39.242,0.730
39.280,0.750
39.285,0.819
39.315,0.700
39.368,0.855
39.425,0.960
39.597,0.720
39.659,0.560
39.726,1.150
39.782,0.790
39.854,1.220
40.279,0.980
40.324,0.744
40.366,0.744
40.403,0.720
40.525,0.770
40.589,0.750
40.675,0.980
40.714,0.564
40.718,0.517
40.757,0.330
40.770,0.380
40.792,0.480
40.813,0.500
40.813,0.380
40.813,0.450
40.833,0.422
40.833,0.422
40.833,0.422
40.833,0.422
40.833,0.422
40.854,0.370
40.855,0.370
40.886,0.288
40.887,0.250
40.912,0.210
40.944,0.336
40.944,0.370
40.993,0.320
40.993,0.320
41.035,0.320
41.035,0.380
41.065,0.492
41.085,0.390
41.106,0.430
41.125,0.400
41.146,0.610
41.146,0.580
41.168,0.630
41.187,0.590
41.206,0.770
41.207,0.770
41.226,0.650
41.262,0.490
41.281,0.630
41.283,0.815
41.304,0.452
41.322,0.560
41.323,0.560
41.341,0.660
41.344,0.640
41.363,0.570
41.364,0.660
41.389,0.490
41.419,0.520
41.496,0.485
41.566,0.584
42.157,0.090
42.165,0.050
42.286,0.620
42.412,0.590
42.427,0.726
42.483,0.623
42.488,0.802
42.564,0.830
42.654,0.690
42.654,0.815