Age model opt [ka],Cibicidoides spp. d13C [per mil PDB]
17.862,0.796
17.865,1.041
17.867,0.75
17.87,0.74
17.873,0.848
17.876,0.75
17.879,0.79
17.884,0.739
17.889,-0.16
17.894,0.694
17.898,0.453
17.9,0.97
17.903,0.327
17.908,0.319
17.913,0.522
17.917,-0.053
17.931,0.298
17.934,0.74
17.941,0.557
17.945,0.43
17.948,0.166
17.952,0.55
17.955,0.97
17.959,0.79
17.96,1.04
17.962,0.725
17.965,0.668
17.969,0.376
17.972,1.236
17.973,1.03
17.976,1.169
17.979,1.188
17.983,1.149
17.986,0.923
17.99,0.778
17.993,0.677
17.997,0.54
18,0.41
18.004,0.751
18.008,0.674
18.012,0.358
18.016,0.591
18.02,0.453
18.024,0.265
18.028,-0.17
18.03,0.59
18.033,0.291
18.037,-0.081
18.041,0.398
18.045,-0.055
18.049,0.407
18.053,0.568
18.062,0.801
18.066,0.702
18.07,0.694
18.074,0.652
18.078,0.654
18.087,0.916
18.091,0.799
18.092,1.04
18.096,0.941
18.099,1.055
18.105,0.74
18.107,0.946
18.11,0.876
18.113,1.02
18.123,0.928
18.123,0.89
18.129,1.039
18.134,0.427
18.139,0.745
18.144,0.514
18.15,0.051
18.155,0.496
18.16,0.017
18.164,0.625
18.166,0.918
18.169,0.74
18.172,1.104
18.175,1.072
18.177,0.958
18.18,1.168
18.181,1.19
18.183,1.16
18.185,1.111
18.188,0.827
18.191,0.604
18.194,0.877
18.196,0.718
18.199,0.71
18.208,0.491
18.211,0.897
18.218,1.21
18.22,1.13
18.221,1.033
18.224,1.154
18.227,1.117
18.23,0.528
18.233,0.077
18.237,0.91
18.24,0.776
18.251,0.848
18.257,0.605
18.262,0.531
18.268,0.426
18.273,0.128
18.283,0.354
18.288,0.034
18.289,0.6
18.293,0.392
18.297,0.349
18.301,0.068
18.306,0.699
18.309,0.314
18.312,0.648
18.315,0.488
18.318,0.677
18.324,0.77
18.327,0.141
18.332,0.625
18.334,0.748
18.413,1.003
18.415,0.186
18.417,0.221
18.422,0.82
18.422,0.85
18.428,0.918
18.433,0.91
18.437,0.903
18.44,0.984
18.443,1.09
18.447,1.11
18.45,0.786
18.453,0.82
18.457,1.08
18.46,1.02
18.463,0.286
18.467,0.99
18.47,0.783
18.474,1.057
18.477,0.94
18.478,0.969
18.481,0.87
18.485,0.6
18.489,0.794
18.493,0.791
18.497,0.85
18.501,0.138
18.505,0.878
18.509,0.573
18.513,0.481
18.517,-0.083
18.521,0.634
18.525,-0.252
18.529,0.541
18.532,0.751
18.534,1.05
18.534,0.765
18.537,0.736
18.539,1.071
18.541,0.94
18.544,0.72
18.548,0.981
18.551,0.663
18.554,1.07
18.561,0.844
18.573,0.768
18.577,0.571
18.585,1.02
18.585,1.032
18.589,1.066
18.594,0.963
18.597,0.685
18.601,0.934
18.605,0.944
18.609,0.849
18.612,0.777
18.615,0.97
18.618,0.336
18.621,0.663
18.624,0.535
18.627,1.102
18.63,1.116
18.633,1.044
18.636,0.89
18.636,0.99
18.639,0.925
18.642,0.562
18.645,0.844
18.648,0.907
18.651,0.85
18.656,1.002
18.663,0.872
18.669,0.812
18.682,0.422
18.687,0.495
18.691,0.693
18.694,0.362
18.697,0.52
18.748,0.969
18.751,0.531
18.754,0.731
18.757,0.36
18.757,0.53
18.759,0.222
18.762,0.317
18.764,0.501
18.767,-0.065
18.773,0.519
18.777,0.025
18.781,0.283
18.784,0.741
18.788,0.687
18.792,0.839
18.796,0.819
18.803,0.549
18.807,0.105
18.811,-0.152
18.814,0.475
18.818,-0.413
18.821,-0.086
18.824,0.824
18.828,0.118
18.834,0.939
18.837,0.946
18.841,0.886
18.844,0.779
18.847,0.761
18.85,0.704
18.853,0.74
18.856,0.89
18.857,0.332
18.86,0.854
18.863,0.636
18.866,0.877
18.874,0.759
18.879,0.74
18.888,0.576
18.892,0.662
18.896,0.711
18.9,0.533
18.903,0.63
18.907,0.774
18.911,0.306
18.914,0.89
18.915,0.667
18.918,0.563
18.922,0.581
18.926,0.764
18.929,0.707
18.933,0.662
18.937,1.089
18.94,1.081
18.944,1.052
18.948,0.82
18.951,0.904
18.955,0.508
18.959,0.72
18.962,0.366
18.966,0.71
18.969,0.86
18.97,0.741
18.974,1.039
18.978,1.09
18.981,0.799
18.985,1.211
18.989,-0.14
18.993,1.113
18.998,1.001
19.002,1.091
19.006,1.074
19.01,0.917
19.014,1.036
19.018,0.912
19.022,1.012
19.027,1.036
19.03,0.99
19.031,0.883
19.034,0.86
19.038,0.246
19.042,0.815
19.046,0.526
19.051,0.784
19.056,0.983
19.06,0.9
19.065,1.095
19.07,0.87
19.075,1.16
19.08,0.96
19.085,1.04
19.089,0.85
19.094,0.89
19.097,0.68
19.098,0.74
19.103,0.904
19.107,1.02
19.119,0.857
19.123,0.501
19.128,0.297
19.129,0.43
19.131,0.624
19.135,0.882
19.138,0.63
19.141,0.995
19.145,1.121
19.147,0.953
19.149,0.728
19.152,0.883
19.154,0.908
19.156,0.635
19.158,0.728
19.16,0.699
19.163,0.596
19.165,0.197
19.167,0.214
19.168,0.75
19.17,0.745
19.172,0.92
19.175,0.783
19.178,0.345
19.18,0.866
19.183,1.298
19.186,1.058
19.188,0.472
19.191,0.889
19.194,0.736
19.196,0.73
19.199,0.477
19.206,0.734
19.209,0.58
19.21,0.61
19.215,0.884
19.219,0.907
19.224,0.458
19.229,0.817
19.233,0.922
19.238,0.896
19.243,0.837
19.246,0.906
19.249,0.857
19.253,0.545
19.259,0.888
19.262,0.999
19.265,0.885
19.268,1.02
19.269,1.015
19.272,0.824
19.275,0.951
19.278,0.913
19.281,1.171
19.284,0.953
19.287,1.022
19.29,1.121
19.293,0.826
19.296,0.775
19.299,0.791
19.302,1.099
19.305,1.261
19.308,0.979
19.311,0.999
19.312,1.15
19.314,1.001
19.317,0.724
19.32,0.825
19.322,0.775
19.325,0.468
19.329,0.356
19.334,0.864
19.34,1.013
19.345,1.126
19.35,1.224
19.355,1.134
19.361,1.113
19.365,1.137
19.368,1.072
19.37,0.989
19.372,0.865
19.375,0.98
19.377,1.06
19.38,1.081
19.383,0.88
19.387,1.223
19.39,0.624
19.393,1.306
19.397,0.902
19.4,1.165
19.403,0.909
19.406,0.439
19.41,0.418
19.413,0.702
19.416,0.67
19.42,0.817
19.423,0.767
19.426,0.771
19.427,1.018
19.43,1.077
19.431,0.978
19.436,0.927
19.44,0.943
19.442,0.84
19.445,0.918
19.448,0.948
19.451,0.963
19.454,0.946
19.457,0.899
19.46,0.992
19.463,0.998
19.466,1.002
19.47,0.916
19.473,0.892
19.476,0.943
19.479,0.806
19.482,0.919
19.485,0.667
19.488,0.64
19.489,0.64
19.491,0.682
19.494,0.662
19.497,0.67
19.499,0.772
19.502,0.661
19.505,0.275
19.508,0.698
19.51,0.585
19.516,0.491
19.518,0.47
19.521,0.451
19.524,0.033
19.532,0.51
19.534,-0.126
19.537,0.801
19.541,0.742
19.544,0.885
19.548,0.96
19.551,0.982
19.555,0.949
19.559,0.979
19.562,0.692
19.566,1.05
19.569,0.842
19.576,0.545
19.58,0.737
19.583,0.789
19.585,0.71
19.587,0.788
19.594,0.805
19.598,0.313
19.601,0.648
19.613,0.405
19.616,0.566
19.624,0.674
19.637,0.392
19.642,0.623
19.645,0.8
19.648,0.889
19.654,0.782
19.657,0.736
19.66,0.744
19.667,0.948
19.67,0.926
19.673,0.981
19.677,0.906
19.68,0.972
19.683,0.843
19.687,0.856
19.691,0.907
19.696,0.803
19.7,0.843
19.702,0.83
19.705,0.843
19.709,0.851
19.713,0.585
19.718,0.688
19.722,0.42
19.805,0.63
19.809,0.695
19.813,0.63
19.815,0.79
19.817,0.754
19.821,0.859
19.825,0.889
19.828,0.887
19.832,0.869
19.835,0.874
19.839,0.741
19.846,0.749
19.852,0.613
19.864,0.555
19.87,0.752
19.876,0.717
19.879,0.755
19.882,0.836
19.885,0.72
19.888,0.748
19.891,0.729
19.894,0.678
19.897,0.474
19.902,0.7
19.904,0.764
19.907,0.94
19.909,0.911
19.91,0.81
19.911,0.794
19.914,0.844
19.916,0.89
19.919,0.463
19.934,0.616
19.937,0.753
19.94,0.715
19.943,0.792
19.946,0.756
19.951,0.727
19.955,0.681
19.957,0.53
19.96,0.531
19.964,0.677
19.969,0.618
19.982,0.401
19.986,0.687
19.995,1.012
19.999,0.911
20.002,1.026
20.006,0.788
20.009,0.828
20.013,0.659
20.018,0.43
20.02,0.475
20.024,0.636
20.028,0.636
20.031,0.569
20.035,0.625
20.039,0.276
20.042,0.435
20.045,0.542
20.047,0.352
20.053,0.262
20.068,0.209
20.2,0.74
20.204,0.651
20.207,0.599
20.21,0.937
20.212,0.64
20.213,0.795
20.216,0.758
20.219,0.761
20.223,0.674
20.226,0.676
20.229,0.807
20.235,0.933
20.237,0.902
20.24,0.979
20.242,0.91
20.245,0.904
20.247,0.927
20.25,0.723
20.253,0.76
20.254,0.675
20.257,0.615
20.259,0.981
20.269,0.94
20.273,0.859
20.28,0.939
20.283,0.868
20.286,0.847
20.29,0.558
20.293,0.634
20.297,0.619
20.3,0.614
20.302,0.59
20.303,0.447
20.306,0.703
20.31,0.524
20.313,0.856
20.316,0.81
20.319,0.782
20.322,0.72
20.325,0.525
20.337,0.448
20.34,0.343
20.345,0.463
20.346,0.82
20.348,0.686
20.35,0.677
20.352,0.741
20.355,0.779
20.357,0.829
20.36,0.788
20.362,0.717
20.364,0.782
20.366,0.708
20.368,0.741
20.37,0.754
20.372,0.72
20.378,0.59
20.381,0.705
20.383,0.76
20.384,0.73
20.388,0.715
20.391,0.726
20.398,0.619
20.402,0.595
20.405,0.602
20.409,0.529
20.416,0.556
20.419,0.605
20.423,0.553
20.427,0.551
20.432,0.78
20.437,0.625
20.439,0.77
20.442,0.74
20.446,0.512
20.449,0.53
20.452,0.376
20.455,0.518
20.458,0.425
20.461,0.217
20.464,0.235
20.467,0.763
20.47,0.505
20.473,0.593
20.476,0.855
20.479,0.804
20.482,0.87
20.495,0.68
20.498,0.77
20.501,0.82
20.504,0.623
20.505,0.87
20.507,0.86
20.51,0.821
20.514,0.96
20.518,0.739
20.521,0.731
20.525,0.814
20.529,0.662
20.532,0.78
20.534,0.859
20.537,0.748
20.54,0.758
20.542,0.665
20.545,0.858
20.547,0.85
20.55,0.886
20.551,1.25
20.553,0.769
20.555,1.01
20.558,0.999
20.56,0.914
20.566,0.964
20.571,0.879
20.576,0.739
20.581,0.919
20.585,0.864
20.589,0.867
20.592,0.924
20.595,0.912
20.599,1.07
20.602,0.655
20.606,0.95
20.607,1.11
20.609,0.297
20.612,0.116
20.616,0.881
20.619,0.78
20.623,0.661
20.626,0.77
20.629,0.73
20.631,0.825
20.634,0.997
20.637,0.771
20.639,0.886
20.642,0.95
20.645,0.883
20.648,0.983
20.65,0.712
20.653,0.78
20.656,0.71
20.658,0.85
20.662,0.781
20.666,0.6
20.67,0.834
20.674,0.884
20.681,0.884
20.685,0.807
20.693,0.83
20.697,0.845
20.7,0.671
20.703,0.666
20.706,0.932
20.712,0.579
20.715,0.858
20.718,0.921
20.72,0.943
20.723,0.67
20.729,0.66
20.732,0.56
20.735,0.65
20.738,0.631
20.741,0.584
20.744,0.544
20.75,0.551
20.753,0.759
20.757,0.813
20.76,0.845
20.763,0.84
20.766,0.927
20.769,0.879
20.769,0.654
20.773,0.701
20.776,0.531
20.779,0.516
20.782,0.562
20.785,0.445
20.789,0.448
20.808,0.762
20.811,0.839
20.817,0.825
20.821,0.663
20.824,0.596
20.827,0.561
20.83,0.658
20.839,0.756
20.843,0.699
20.848,0.758
20.852,0.591
20.857,0.656
20.865,0.69
20.869,0.705
20.872,0.687
20.876,0.779
20.88,0.855
20.883,0.96
20.887,0.772
20.89,0.255
20.897,0.749
20.917,0.733
20.921,0.343
20.924,0.965
20.928,0.456
20.939,0.628
20.949,1.016
20.958,0.197
20.967,0.869
20.97,0.842
20.972,0.817
20.975,0.76
20.978,0.745
20.981,0.787
20.984,0.903
20.987,0.418
20.995,1.061
20.998,1.013
21.001,0.427
21.004,0.871
21.007,0.649
21.009,0.409
21.012,1.004
21.015,0.6
21.018,0.817
21.021,0.944
21.024,0.93
21.03,0.141
21.033,0.897
21.037,0.925
21.04,0.087
21.043,0.866
21.047,1.09
21.05,1.077
21.054,0.925
21.057,0.879
21.061,-0.228
21.064,0.13
21.071,0.928
21.074,0.939
21.077,1.224
21.086,1.133
21.089,1.101
21.092,0.93
21.094,0.967
21.097,0.964
21.1,0.952
21.118,0.773
21.128,1.059
21.144,0.371
21.148,0.406
21.15,0.502
21.153,0.914
21.156,0.936
21.158,0.942
21.161,1.003
21.164,0.965
21.166,0.96
21.169,0.925
21.172,0.975
21.174,0.73
21.177,0.763
21.18,0.699
21.182,0.645
21.185,0.402
21.188,0.619
21.191,0.89
21.194,0.88
21.198,0.876
21.201,0.97
21.205,0.809
21.208,0.927
21.211,0.848
21.215,0.741
21.218,0.754
21.221,0.808
21.225,0.682
21.228,0.761
21.232,0.819
21.236,0.722
21.24,0.835
21.244,0.779
21.248,0.604
21.252,0.758
21.256,0.713
21.259,0.45
21.263,0.665
21.267,0.687
21.27,0.853
21.273,1.042
21.277,1.031
21.28,0.896
21.287,0.737
21.29,0.738
21.294,0.635
21.297,0.65
21.3,0.799
21.304,0.67
21.307,0.872
21.31,0.697
21.314,1.001
21.317,1.127
21.321,1.12
21.324,0.578
21.327,1.243
21.331,1.219
21.334,0.887
21.337,0.926
21.341,0.822
21.344,0.658
21.347,0.753
21.351,0.919
21.354,0.857
21.357,1.029
21.361,0.954
21.363,0.956
21.367,0.95
21.37,1.053
21.374,1.12
21.377,0.968
21.38,0.874
21.383,0.968
21.387,0.95
21.39,0.967
21.393,1.114
21.396,1.157
21.4,1.088
21.403,1.039
21.406,0.94
21.409,0.911
21.413,1.024
21.416,0.933
21.419,0.982
21.423,0.941
21.426,1.066
21.429,0.651
21.432,0.614
21.436,1.148
21.439,1.092
21.439,0.475
21.442,0.62
21.445,0.791
21.449,1.143
21.452,0.893
21.455,0.969
21.458,1.115
21.462,0.387
21.465,0.682
21.468,0.487
21.472,0.605
21.476,0.848
21.48,1.109
21.483,1
21.488,0.901
21.492,0.821
21.496,0.719
21.5,0.726
21.504,0.778
21.507,0.822
21.509,0.835
21.512,0.731
21.514,0.837
21.517,0.848
21.519,0.944
21.522,0.595
21.524,0.983
21.527,0.88
21.529,0.947
21.532,0.78
21.534,0.56
21.537,0.539
21.539,0.525
21.541,0.444
21.544,0.65
21.547,0.748
21.55,0.766
21.553,0.847
21.555,0.913
21.557,0.801
21.561,0.91
21.564,0.818
21.567,0.754
21.569,0.809
21.572,0.707
21.575,0.821
21.578,0.605
21.581,0.504
21.583,0.61
21.586,0.644
21.59,0.509
21.593,0.697
21.595,0.738
21.599,0.572
21.602,0.475
21.605,0.713
21.609,0.667
21.612,0.777
21.614,0.727
21.618,0.439
21.621,0.344
21.625,0.615
21.628,0.638
21.631,0.758
21.634,0.855
21.638,0.547
21.641,0.374
21.644,0.457
21.648,0.815
21.651,0.771
21.654,0.894
21.658,0.868
21.661,0.873
21.664,0.716
21.668,0.921
21.671,1.007
21.674,0.95
21.677,1.06
21.681,1.14
21.684,0.97
21.687,0.873
21.69,0.818
21.694,0.822
21.697,0.836
21.699,0.797
21.705,0.603
21.708,0.569
21.712,0.831
21.716,0.609
21.721,0.82
21.725,0.68
21.729,0.987
21.733,0.956
21.737,0.853
21.741,0.815
21.744,0.907
21.748,0.852
21.748,1.1
21.752,1.11
21.756,1.05
21.776,0.869
21.78,1.194
21.783,1.05
21.787,1.269
21.791,1.282
21.794,1.244
21.797,1.369
21.802,1.285
21.805,1.208
21.809,1.185
21.812,1.099
21.816,1.176
21.82,1.231
21.823,1.197
21.827,1.234
21.831,1.099
21.834,1.162
21.838,1.296
21.842,1.399
21.845,1.294
21.849,1.321
21.851,1.252
21.856,1.258
21.859,1.352
21.863,1.27
21.866,1.148
21.869,1.418
21.873,1.429
21.876,1.423
21.879,1.472
21.883,1.372
21.886,1.277
21.889,1.082
21.893,1.164
21.896,1.248
21.899,1.212
21.901,1.239
21.904,1.188
21.907,1.271
21.909,1.435
21.912,1.41
21.914,1.31
21.919,1.296
21.922,1.243
21.925,1.272
21.928,1.264
21.93,1.239
21.933,1.321
21.936,1.192
21.939,1.223
21.942,1.154
21.946,1.262
21.949,1.209
21.953,1.354
21.957,1.323
21.96,1.296
21.964,1.227
21.968,1.132
21.971,1.086
21.975,0.913
21.978,0.842
21.982,0.878
21.986,0.797
21.99,0.968
21.994,1.045
21.997,0.893
22.002,1.007
22.006,1.167
22.01,1.032
22.013,0.961
22.017,0.952
22.02,0.882
22.023,0.91
22.027,0.953
22.03,0.969
22.033,1.069
22.036,1.064
22.039,1.157
22.042,1.08
22.045,1.221
22.047,1.311
22.051,1.192
22.053,1.093
22.056,1.094
22.059,1.224
22.062,0.975
22.065,1.048
22.068,1.125
22.07,1.231
22.093,1.06
22.096,0.813
22.099,0.919
22.102,1.001
22.106,1.02
22.11,1.05
22.113,0.991
22.118,1.003
22.122,1.28
22.126,1.06
22.13,1.1
22.134,1.16
22.137,1.18
22.141,0.926
22.145,1.07
22.148,1.28
22.152,1.24
22.154,1.38
22.159,1.3
22.162,1.45
22.166,1.43
22.168,1.24
22.173,1.36
22.176,1.34
22.18,1.33
22.183,1.28
22.187,1.208
22.19,1.23
22.194,1.26
22.197,1.37
22.201,1.38
22.204,1.33
22.208,1.27
22.211,1.48
22.215,1.37
22.218,1.38
22.221,1.36
22.225,1.15
22.228,1.21
22.231,1.26
22.234,1.2
22.237,1.28
22.241,1.36
22.248,1.44
22.251,1.39
22.255,1.406
22.258,1.241
22.261,1.353
22.265,1.253
22.268,1.16
22.272,1.145
22.275,1.238
22.278,1.332
22.282,1.259
22.285,1.368
22.288,1.463
22.291,1.455
22.294,1.449
22.298,1.267
22.301,1.211
22.304,1.115
22.307,1.106
22.31,1.286
22.313,1.227
22.316,1.453
22.318,1.352
22.322,1.422
22.328,1.359
22.331,1.338
22.334,1.08
22.337,1.227
22.34,1.05
22.343,1.015
22.346,1.034
22.35,1.19
22.354,1.095
22.358,1.347
22.362,1.278
22.366,1.305
22.37,1.06
22.374,1.038
22.378,0.903
22.382,0.995
22.386,1.016
22.39,0.979
22.394,1.143
22.398,1.163
22.402,1.215
22.406,1.248
22.41,1.375
22.414,1.213
22.418,1.426
22.418,1.222
22.422,1.149
22.426,1.014
22.43,1.039
22.43,1.262
22.433,1.309
22.437,1.423
22.441,1.495
22.445,1.407
22.449,1.33
22.452,1.339
22.456,1.22
22.46,1.255
22.464,1.091
22.468,1.13
22.471,1.094
22.474,1.219
22.477,1.298
22.48,1.146
22.483,1.275
22.485,1.338
22.488,1.257
22.492,1.034
22.494,1.24
22.497,1.142
22.5,1.132
22.503,1.262
22.508,1.06
22.511,1.18
22.515,1.318
22.518,1.461
22.523,1.466
22.528,1.295
22.533,1.397
22.538,1.395
22.543,1.375
22.547,1.397
22.552,1.37
22.556,1.287
22.56,1.23
22.563,1.48
22.567,1.377
22.571,1.525
22.575,1.381
22.577,1.494
22.579,1.329
22.581,1.384
22.583,1.277
22.585,1.096
22.587,1.008
22.589,1.102
22.591,1.094
22.593,0.957
22.597,1.323
22.601,1.246
22.605,1.275
22.611,1.044
22.613,1.286
22.618,1.186
22.621,1.224
22.625,1.068
22.629,1.068
22.633,1.073
22.636,1.28
22.64,1.244
22.645,1.302
22.648,1.266
22.652,1.222
22.656,1.127
22.66,1.119
22.664,1.106
22.668,1.102
22.672,1.135
22.677,1.156
22.681,1.088
22.685,1.094
22.689,1.261
22.693,1.145
22.697,0.865
22.701,0.797
22.705,0.949
22.709,0.835
22.713,1.161
22.717,0.919
22.721,1.348
22.725,1.376
22.729,1.283
22.733,1.204
22.737,1.024
22.741,1.161
22.745,1.14
22.749,1.01
22.788,1.164
22.792,1.131
22.8,1.184
22.804,1.267
22.808,1.309
22.811,1.167
22.815,1.142
22.818,1.159
22.825,0.912
22.829,0.955
22.832,1.133
22.836,1.233
22.84,1.319
22.845,1.294
22.849,1.202
22.853,1.109
22.861,0.999
22.866,0.852
22.869,0.841
22.874,0.962
22.878,1.134
22.886,1.15
22.89,1.3
22.894,1.38
22.899,1.37
22.903,1.14
22.903,1.15
22.908,1.006
22.912,1.219
22.92,1.254
22.924,1.387
22.928,1.327
22.931,1.413
22.935,1.443
22.939,1.51
22.947,1.354
22.951,1.445
22.955,1.438
22.959,1.439
22.963,1.49
22.967,1.469
22.97,1.385
22.973,1.389
22.978,1.3
22.982,1.21
22.985,1.327
22.989,1.241
22.993,1.272
22.999,1.536
23.003,1.55
23.006,1.442
23.01,1.446
23.013,1.265
23.017,1.203
23.02,1.228
23.024,1.286
23.027,1.21
23.031,1.354
23.034,1.661
23.038,1.321
23.042,1.326
23.045,1.29
23.052,1.294
23.056,1.251
23.06,1.295
23.063,1.273
23.067,1.053
23.071,0.963
23.075,1.068
23.079,1.011
23.083,1.248
23.087,1.308
23.092,1.099
23.096,1.213
23.1,1.244
23.104,1.315
23.113,1.238
23.117,0.927
23.121,1.035
23.125,1.094
23.155,1.047
23.158,0.994
23.161,0.925
23.168,0.974
23.171,1.206
23.174,1.217
23.178,1.154
23.181,1.044
23.189,1.117
23.193,1.048
23.197,1.138
23.201,1.081
23.205,1.075
23.209,1.103
23.213,1.013
23.217,0.841
23.226,0.774
23.23,0.617
23.234,0.59
23.237,0.545
23.241,0.531
23.248,0.802
23.252,0.939
23.255,0.774
23.259,0.822
23.263,0.649
23.268,0.725
23.271,0.65
23.275,0.671
23.282,0.528
23.285,0.602
23.288,0.771
23.292,0.952
23.295,0.748
23.301,0.914
23.304,0.665
23.308,0.593
23.317,0.688
23.321,0.851
23.333,0.691
23.335,0.472
23.339,0.724
23.343,0.665
23.346,0.62
23.354,0.611
23.358,0.87
23.363,0.815
23.369,0.779
23.373,0.752
23.379,0.741
23.384,0.938
23.389,0.864
23.397,0.974
23.404,1.245
23.408,1.252
23.412,1.14
23.422,1.121
23.428,1.025
23.434,1.084
23.438,1.009
23.442,0.992
23.447,1.112
23.451,1.158
23.464,1.121
23.496,1.111
23.512,1.021
23.526,0.988
23.54,1.091
23.554,1.035
23.568,1.267
23.574,1.251
23.578,1.318
23.581,1.218
23.583,1.188
23.586,1.047
23.588,1.038
23.59,1.015
23.598,1.004
23.601,0.819
23.603,0.718
23.608,0.728
23.61,0.918
23.613,1.143
23.615,1.146
23.618,1.222
23.626,1.189
23.629,0.885
23.633,0.941
23.637,0.929
23.641,0.87
23.644,0.947
23.648,0.78
23.652,1.042
23.659,0.943
23.662,0.871
23.665,0.791
23.669,0.741
23.672,0.611
23.678,0.837
23.681,0.824
23.685,0.973
23.688,0.939
23.691,0.929
23.697,0.731
23.702,0.541
23.707,0.495
23.717,0.349
23.721,0.605
23.725,0.534
23.729,0.633
23.732,0.818
23.74,0.584
23.744,0.422
23.748,0.385
23.752,0.482
23.755,0.433
23.759,0.574
23.764,0.594
23.769,0.467
23.779,0.481
23.784,0.543
23.788,0.481
23.791,0.493
23.794,0.378
23.802,0.737
23.813,0.489
23.819,0.581
23.825,0.51
23.83,0.611
23.836,0.616
23.84,0.563
23.848,0.771
23.852,0.848
23.856,0.739
23.859,0.729
23.863,0.878
23.87,0.669
23.873,0.682
23.879,0.776
23.884,0.669
23.89,0.719
23.896,0.921
23.9,0.807
23.903,0.836
23.909,0.631
23.912,0.865
23.915,0.835
23.918,0.903
23.921,0.918
23.931,0.781
23.935,0.886
23.94,0.636
23.945,0.715
23.95,0.833
23.954,0.652
23.958,0.803
23.963,0.778
23.972,0.94
23.978,0.715
23.98,0.735
23.982,0.83
23.986,0.785
23.988,0.597
23.99,0.864
23.992,0.772
23.994,0.675
23.998,0.537
24,0.394
24.002,0.642
24.004,0.625
24.006,0.456
24.008,0.623
24.01,0.727
24.013,0.577
24.021,0.632
24.025,0.498
24.029,0.526
24.033,0.369
24.037,0.582
24.044,0.673
24.047,0.698
24.05,0.704
24.054,0.721
24.057,0.647
24.061,0.592
24.065,0.338
24.068,0.43
24.075,0.498
24.078,0.477
24.081,0.396
24.084,0.513
24.088,0.439
24.101,0.423
24.106,0.394
24.112,0.449
24.121,0.737
24.125,0.632
24.129,0.602
24.137,0.6
24.141,0.674
24.145,0.642
24.15,0.583
24.154,0.719
24.163,0.764
24.167,0.581
24.171,0.631
24.176,0.531
24.18,0.567
24.187,0.401
24.189,0.417
24.194,0.378
24.196,0.636
24.199,0.615
24.2,0.685
24.203,0.451
24.208,0.671
24.21,0.746
24.212,0.669
24.215,0.804
24.217,0.729
24.221,0.894
24.224,0.711
24.227,0.623
24.234,0.694
24.237,0.656
24.24,0.606
24.243,0.833
24.246,0.793
24.252,0.774
24.287,0.734
24.29,0.78
24.293,0.758
24.296,0.853
24.299,0.76
24.301,0.628
24.304,0.822
24.307,0.636
24.31,0.707
24.313,0.585
24.316,0.6
24.319,0.586
24.322,0.529
24.325,0.619
24.327,0.607
24.33,0.585
24.333,0.567
24.336,0.568
24.339,0.575
24.342,0.466
24.345,0.41
24.349,0.434
24.352,0.539
24.355,0.659
24.359,0.678
24.362,0.741
24.365,0.683
24.369,0.761
24.374,0.708
24.379,0.623
24.384,0.614
24.389,0.695
24.394,0.688
24.399,0.714
24.404,0.699
24.409,0.649
24.413,0.64
24.418,0.623
24.423,0.594
24.428,0.445
24.433,0.573
24.438,0.585
24.443,0.628
24.448,0.552
24.453,0.297
24.457,0.746
24.463,0.607
24.468,0.528
24.478,0.082
24.483,0.264
24.488,0.386
24.493,0.605
24.496,0.531
24.5,0.687
24.503,0.775
24.507,0.774
24.511,0.311
24.518,0.606
24.522,0.614
24.529,0.513
24.532,0.227
24.537,0.403
24.542,0.256
24.547,0.337
24.557,0.7
24.598,0.897
24.603,0.833
24.607,0.554
24.609,0.815
24.612,0.828
24.614,0.496
24.617,0.84
24.619,0.877
24.622,1.024
24.624,1.045
24.627,0.799
24.629,0.669
24.632,0.661
24.634,0.619
24.637,0.707
24.639,0.57
24.643,0.967
24.652,0.967
24.652,0.601
24.657,0.969
24.657,0.616
24.661,0.798
24.666,0.618
24.67,0.49
24.675,0.564
24.684,0.637
24.687,0.74
24.693,0.634
24.696,0.677
24.699,0.833
24.702,0.622
24.705,0.699
24.708,0.696
24.711,0.624
24.714,0.616
24.717,0.659
24.721,0.747
24.725,0.758
24.729,0.843
24.734,0.747
24.738,0.721
24.742,0.597
24.747,0.586
24.751,0.569
24.755,0.473
24.76,0.496
24.764,0.707
24.768,0.524
24.772,0.738
24.777,0.725
24.781,0.679
24.785,0.665
24.789,0.606
24.793,0.567
24.798,0.521
24.802,0.439
24.806,0.469
24.81,0.382
24.814,0.428
24.822,0.568
24.825,0.492
24.829,0.295
24.833,0.326
24.836,0.39
24.84,0.32
24.845,0.36
24.85,0.43
24.856,0.46
24.861,0.632
24.867,0.372
24.873,0.547
24.877,0.313
24.879,0.402
24.882,0.441
24.884,0.487
24.887,0.628
24.89,0.658
24.893,0.777
24.896,0.704
24.898,0.698
24.901,0.62
24.904,0.632
24.907,0.464
24.91,0.408
24.913,0.345
24.915,0.322
24.918,0.242
24.921,0.304
24.924,0.402
24.927,0.407
24.929,0.359
24.939,0.331
24.949,0.43
24.959,0.45
24.963,0.369
24.967,0.227
24.971,0.334
24.975,0.37
24.979,0.591
24.983,0.547
24.986,0.517
24.99,0.616
24.997,0.39
25,0.328
25,0.48
25.005,0.528
25.005,0.483
25.009,0.576
25.037,0.648
25.041,0.469
25.045,0.522
25.049,0.44
25.053,0.49
25.057,0.63
25.06,0.49
25.063,0.555
25.066,0.586
25.069,0.542
25.072,0.544
25.075,0.54
25.078,0.38
25.081,0.368
25.084,0.292
25.09,0.413
25.094,0.502
25.097,0.568
25.104,0.447
25.107,0.255
25.11,0.44
25.113,0.284
25.117,0.469
25.12,0.502
25.126,0.494
25.134,0.372
25.142,0.43
25.149,0.451
25.154,0.398
25.157,0.477
25.159,0.407
25.162,0.288
25.165,0.413
25.167,0.527
25.173,0.426
25.178,0.565
25.182,0.546
25.187,0.524
25.191,0.484
25.195,0.445
25.199,0.408
25.203,0.249
25.207,0.392
25.211,0.385
25.228,0.414
25.231,0.316
25.235,0.313
25.238,0.343
25.241,0.327
25.244,0.351
25.248,0.375
25.252,0.383
25.256,0.504
25.263,0.656
25.267,0.533
25.274,0.389
25.277,0.412
25.281,0.297
25.284,0.413
25.289,0.203
25.294,0.273
25.298,0.368
25.303,0.423
25.308,0.419
25.32,0.309
25.324,0.286
25.328,0.392
25.332,0.08
25.337,0.445
25.342,0.258
25.348,0.368
25.354,0.384
25.359,0.304
25.363,0.345
25.368,0.408
25.372,0.489
25.376,0.526
25.388,0.472
25.391,0.581
25.395,0.516
25.406,0.307
25.415,0.394
25.425,0.538
25.434,0.517
25.434,0.529
25.444,0.374
25.45,0.572
25.454,0.631
25.457,0.818
25.461,0.605
25.471,0.632
25.474,0.593
25.48,0.844
25.485,0.82
25.496,0.874
25.5,0.604
25.503,0.846
25.506,0.881
25.509,0.907
25.512,0.927
25.515,0.88
25.518,0.882
25.521,0.823
25.527,0.701
25.533,0.789
25.536,0.701
25.539,0.766
25.542,0.794
25.545,0.705
25.548,0.912
25.55,0.842
25.553,0.811
25.556,0.865
25.56,0.813
25.563,0.856
25.567,0.779
25.57,0.771
25.574,0.915
25.577,0.929
25.58,0.876
25.583,0.881
25.586,0.893
25.589,0.877
25.593,0.862
25.597,0.804
25.6,0.737
25.604,0.645
25.607,0.723
25.61,0.848
25.614,0.403
25.618,0.228
25.623,0.714
25.627,0.797
25.632,0.89
25.637,0.915
25.642,0.678
25.646,0.67
25.65,0.552
25.658,0.697
25.663,0.81
25.667,0.842
25.672,0.786
25.676,0.771
25.68,0.754
25.685,0.743
25.689,0.765
25.694,0.644
25.698,0.749
25.703,0.701
25.707,0.732
25.712,0.569
25.716,0.61
25.721,0.627
25.725,0.501
25.729,0.621
25.733,0.661
25.737,0.578
25.741,0.751
25.744,0.829
25.748,0.858
25.752,0.826
25.756,0.639
25.759,0.565
25.763,0.7
25.77,0.631
25.775,1.04
25.779,1.178
25.783,1.076
25.787,0.927
25.79,1.05
25.793,0.602
25.797,0.85
25.8,0.804
25.803,0.74
25.803,0.765
25.807,0.977
25.811,1.048
25.816,1.066
25.821,0.063
25.83,0.539
25.835,0.75
25.839,0.817
25.843,0.629
25.846,0.165
25.849,0.524
25.852,0.98
25.855,0.81
25.858,1.011
25.861,0.218
25.865,-0.163
25.868,0.36
25.871,0.461
25.874,0.463
25.877,0.82
25.88,0.949
25.887,0.858
25.89,-0.016
25.893,0.892
25.896,0.468
25.9,0.568
25.903,0.308
25.906,0.691
25.91,0.422
25.913,0.258
25.916,0.762
25.919,0.768
25.923,0.485
25.926,0.495
25.929,0.072
25.933,0.235
25.936,0.69
25.939,0.045
25.942,-0.236
25.947,0.11
25.952,0.591
25.956,0.545
25.961,-0.036
25.966,-0.335
25.97,0.233
25.974,0.314
25.978,0.834
25.982,0.391
25.986,0.475
25.99,0.403
25.994,0.759
25.998,0.064
26.002,0.35
26.005,0.095
26.009,-0.287
26.013,-0.526
26.017,0.582
26.024,0.97
26.028,0.429
26.031,0.18
26.035,0.189
26.038,0.55
26.042,0.115
26.045,-0.281
26.048,0.556
26.051,0.544
26.053,0.65
26.062,0.549
26.064,0.63
26.067,0.194
26.07,0.307
26.073,-0.198
26.076,0.22
26.078,-0.251
26.081,-0.256
26.088,0.337
26.091,-0.28
26.095,-0.37
26.098,0.12
26.101,0.314
26.105,0.395
26.108,0.444
26.112,0.46
26.115,-0.106
26.119,0.224
26.122,0
26.125,-0.37
26.128,-0.646
26.141,0.643
26.144,0.784
26.147,0.806
26.15,0.504
26.153,-0.164
26.156,0.48
26.159,0.585
26.163,0.19
26.166,0.88
26.172,-0.48
26.177,0.247
26.182,0.47
26.187,-0.249
26.193,
26.198,0.11
26.202,0.34
26.206,0.665
26.21,0.36
26.214,1.012
26.218,0.817
26.222,0.981
26.226,0.73
26.23,0.39
26.234,0.54
26.238,0.619
26.242,0.457
26.253,0.79
26.256,0.84
26.259,0.84
26.263,0.73
26.266,0.81
26.27,0.228
26.273,0.776
26.277,0.441
26.28,0.701
26.284,0.669
26.287,0.627
26.29,-0.284
26.295,0.88
26.299,-0.117
26.303,0.746
26.306,-0.57
26.31,0.529
26.314,-0.39
26.317,-1.047
26.324,-0.807
26.328,0.817
26.335,-0.146
26.349,0.92
26.353,0.781
26.358,-1.047
26.362,0.014
26.366,-0.305
26.37,0.229
26.374,0.847
26.378,0.739
26.382,-0.312
26.386,-0.335
26.39,0.827
26.394,0.56
26.398,-0.59
26.402,0.404
26.406,-0.108
26.41,0.678
26.414,0.333
26.417,0.88
26.421,0.882
26.425,0.694
26.429,0.62
26.437,-0.362
26.441,0.166
26.445,-0.584
26.448,0.348
26.452,0.6
26.456,0.394
26.46,0.76
26.464,0.31
26.468,0.275
26.471,0.16
26.475,
26.479,-0.4
26.482,0.163
26.486,0.57
26.49,0.59
26.494,-0.402
26.498,0.853
26.501,0.855
26.501,0.632
26.505,-0.2
26.513,0.611
26.517,0.398